#Acq. time (s)=	1
#Accumulations=	1
#Range (eV)=	2...1
#Windows=	11
#Autofocus=	Off
#AutoExposure=	Off
#Spike filter=	Off
#Delay time (s)=	0
#Binning=	1
#Readout mode=	Signal
#DeNoise=	Off
#ICS correction=	Off
#Dark correction=	Off
#Inst. Process=	Off
#Instrument=	LabRAM HR Evol
#Detector=	Syncerity OE
#Objective=	x100_VIS_LWD
#Grating=	600 (500nm)
#ND Filter=	0.1%
#Laser=	442nm_Notch
#Hole=	100.021
#Range=	Visible
#Project=	Paty
#Sample=	
#Site=	15-06-22
#Title=	CdSe1
#Remark=	
#Date=	15.06.2022 20:22
#Acquired=	15.06.2022 20:22:07
2.74975	28
2.74943	30
2.74911	28
2.74879	28
2.74847	24
2.74814	32
2.74782	30
2.7475	20
2.74718	26
2.74686	24
2.74654	28
2.74621	24
2.74589	26
2.74557	28
2.74525	24
2.74493	18
2.74461	24
2.74429	24
2.74397	26
2.74365	20
2.74332	24
2.743	34
2.74268	30
2.74236	30
2.74204	24
2.74172	32
2.7414	34
2.74108	22
2.74076	34
2.74044	30
2.74012	28
2.7398	26
2.73948	28
2.73916	30
2.73884	26
2.73852	24
2.7382	28
2.73788	26
2.73756	28
2.73725	24
2.73693	32
2.73661	30
2.73629	28
2.73597	20
2.73565	30
2.73533	32
2.73501	16
2.73469	26
2.73438	30
2.73406	22
2.73374	28
2.73342	26
2.7331	26
2.73278	30
2.73247	22
2.73215	24
2.73183	28
2.73151	28
2.73119	20
2.73088	34
2.73056	32
2.73024	28
2.72992	26
2.72961	28
2.72929	34
2.72897	32
2.72865	30
2.72834	30
2.72802	30
2.7277	26
2.72739	16
2.72707	30
2.72675	30
2.72643	30
2.72612	26
2.7258	26
2.72549	30
2.72517	32
2.72485	26
2.72454	26
2.72422	30
2.7239	26
2.72359	26
2.72327	28
2.72296	30
2.72264	30
2.72232	30
2.72201	36
2.72169	30
2.72138	24
2.72106	22
2.72075	28
2.72043	24
2.72012	28
2.7198	26
2.71949	26
2.71917	28
2.71886	32
2.71854	26
2.71823	28
2.71791	26
2.7176	26
2.71728	28
2.71697	28
2.71665	22
2.71634	24
2.71603	28
2.71571	24
2.7154	32
2.71508	22
2.71477	30
2.71446	30
2.71414	24
2.71383	22
2.71352	24
2.7132	32
2.71289	30
2.71257	24
2.71226	34
2.71195	32
2.71163	26
2.71132	30
2.71101	30
2.7107	28
2.71038	28
2.71007	24
2.70976	26
2.70944	30
2.70913	24
2.70882	26
2.70851	28
2.70819	32
2.70788	36
2.70757	26
2.70726	34
2.70695	30
2.70663	32
2.70632	30
2.70601	28
2.7057	28
2.70539	24
2.70508	28
2.70476	30
2.70445	22
2.70414	30
2.70383	22
2.70352	28
2.70321	20
2.7029	30
2.70259	34
2.70227	30
2.70196	30
2.70165	22
2.70134	28
2.70103	28
2.70072	28
2.70041	20
2.7001	20
2.69979	30
2.69948	26
2.69917	22
2.69886	30
2.69855	32
2.69824	30
2.69793	32
2.69762	30
2.69731	32
2.697	26
2.69669	18
2.69638	30
2.69607	30
2.69576	26
2.69545	26
2.69514	28
2.69483	30
2.69452	32
2.69422	30
2.69391	34
2.6936	28
2.69329	28
2.69298	26
2.69267	30
2.69236	36
2.69205	30
2.69175	28
2.69144	28
2.69113	30
2.69082	26
2.69051	26
2.6902	34
2.6899	32
2.68959	28
2.68928	20
2.68897	38
2.68867	26
2.68836	28
2.68805	30
2.68774	36
2.68744	24
2.68713	18
2.68682	26
2.68651	34
2.68621	30
2.6859	30
2.68559	32
2.68529	28
2.68498	34
2.68467	28
2.68436	30
2.68406	34
2.68375	36
2.68344	20
2.68314	30
2.68283	32
2.68253	28
2.68222	28
2.68191	40
2.68161	32
2.6813	34
2.681	24
2.68069	34
2.68038	32
2.68008	28
2.67977	40
2.67947	32
2.67916	32
2.67886	30
2.67855	28
2.67825	36
2.67794	32
2.67764	30
2.67733	28
2.67703	30
2.67672	30
2.67642	34
2.67611	28
2.67581	34
2.6755	34
2.6752	26
2.67489	32
2.67459	32
2.67428	28
2.67398	22
2.67368	32
2.67337	26
2.67307	26
2.67276	26
2.67246	26
2.67216	20
2.67185	34
2.67155	26
2.67124	30
2.67094	28
2.67064	30
2.67033	34
2.67003	28
2.66973	38
2.66942	26
2.66912	28
2.66882	28
2.66851	26
2.66821	26
2.66791	28
2.66761	32
2.6673	34
2.667	26
2.6667	32
2.6664	36
2.66609	28
2.66579	26
2.66549	32
2.66519	28
2.66488	28
2.66458	22
2.66428	30
2.66398	34
2.66368	28
2.66337	34
2.66307	32
2.66277	34
2.66247	30
2.66217	26
2.66187	34
2.66157	36
2.66126	26
2.66096	30
2.66066	22
2.66036	30
2.66006	28
2.65976	38
2.65946	34
2.65916	34
2.65886	24
2.65856	28
2.65826	30
2.65795	32
2.65765	22
2.65735	32
2.65705	38
2.65675	28
2.65645	30
2.65615	28
2.65585	32
2.65555	36
2.65525	28
2.65495	28
2.65465	34
2.65435	22
2.65405	28
2.65375	34
2.65346	32
2.65316	32
2.65286	28
2.65256	32
2.65226	36
2.65196	30
2.65166	36
2.65136	30
2.65106	36
2.65076	30
2.65046	20
2.65017	34
2.64987	38
2.64957	38
2.64927	32
2.64897	32
2.64867	28
2.64838	28
2.64808	28
2.64778	30
2.64748	24
2.64718	30
2.64688	28
2.64659	34
2.64629	34
2.64599	24
2.64569	32
2.6454	34
2.6451	28
2.6448	30
2.6445	32
2.64421	22
2.64391	32
2.64361	28
2.64331	34
2.64302	30
2.64272	34
2.64242	32
2.64213	32
2.64183	40
2.64153	32
2.64124	34
2.64094	30
2.64064	32
2.64035	36
2.64005	28
2.63976	34
2.63946	34
2.63916	30
2.63887	28
2.63857	36
2.63827	26
2.63798	28
2.63768	28
2.63739	34
2.63709	38
2.6368	26
2.6365	28
2.6362	32
2.63591	30
2.63561	34
2.63532	30
2.63502	28
2.63473	32
2.63443	28
2.63414	38
2.63384	36
2.63355	32
2.63325	32
2.63296	34
2.63266	32
2.63237	26
2.63208	32
2.63178	34
2.63149	26
2.63119	36
2.6309	26
2.6306	34
2.63031	28
2.63002	34
2.62972	30
2.62943	28
2.62913	32
2.62884	28
2.62855	34
2.62825	36
2.62796	28
2.62767	30
2.62737	30
2.62708	38
2.62679	32
2.62649	24
2.6262	30
2.62591	34
2.62561	38
2.62532	24
2.62503	34
2.62474	28
2.62444	24
2.62415	30
2.62386	38
2.62356	32
2.62327	36
2.62298	36
2.62269	34
2.6224	34
2.6221	30
2.62181	40
2.62152	30
2.62123	36
2.62094	30
2.62064	28
2.62035	38
2.62006	32
2.61977	26
2.61948	44
2.61918	28
2.61889	36
2.6186	30
2.61831	26
2.61802	36
2.61773	30
2.61744	30
2.61715	30
2.61686	28
2.61656	36
2.61627	32
2.61598	38
2.61569	42
2.6154	32
2.61511	34
2.61482	34
2.61453	40
2.61424	32
2.61395	30
2.61366	34
2.61337	36
2.61308	38
2.61279	34
2.6125	30
2.61221	32
2.61192	34
2.61163	34
2.61134	36
2.61105	28
2.61076	28
2.61047	30
2.61018	34
2.60989	30
2.6096	36
2.60931	36
2.60902	34
2.60873	36
2.60845	30
2.60816	30
2.60787	32
2.60758	36
2.60729	40
2.607	30
2.60671	36
2.60642	36
2.60614	24
2.60585	42
2.60556	26
2.60527	34
2.60498	36
2.60469	46
2.60441	36
2.60412	34
2.60383	38
2.60354	34
2.60325	38
2.60297	34
2.60268	36
2.60239	34
2.6021	38
2.60182	34
2.60153	30
2.60124	38
2.60095	36
2.60067	30
2.60038	36
2.60009	34
2.5998	32
2.59952	34
2.59923	34
2.59894	40
2.59866	32
2.59837	48
2.59808	30
2.5978	24
2.59751	36
2.59722	34
2.59694	32
2.59665	40
2.59637	44
2.59608	36
2.59579	26
2.59551	34
2.59522	38
2.59493	28
2.59465	30
2.59436	30
2.59408	30
2.59379	28
2.59351	36
2.59322	38
2.59293	38
2.59265	34
2.59236	34
2.59208	34
2.59179	34
2.59151	38
2.59122	34
2.59094	38
2.59065	44
2.59037	34
2.59008	38
2.5898	30
2.58951	36
2.58923	32
2.58894	38
2.58866	36
2.58838	38
2.58809	36
2.58781	50
2.58752	36
2.58724	38
2.58695	32
2.58667	38
2.58639	30
2.5861	36
2.58582	40
2.58553	44
2.58525	36
2.58497	36
2.58468	30
2.5844	36
2.58412	38
2.58383	42
2.58355	30
2.58327	36
2.58298	38
2.5827	34
2.58242	38
2.58213	44
2.58185	40
2.58157	40
2.58128	32
2.581	46
2.58072	32
2.58044	38
2.58015	40
2.57987	42
2.57959	30
2.57931	36
2.57902	40
2.57874	38
2.57846	34
2.57818	38
2.5779	44
2.57761	36
2.57733	30
2.57705	42
2.57677	38
2.57649	38
2.5762	38
2.57592	36
2.57564	38
2.57536	40
2.57508	38
2.5748	34
2.57452	32
2.57423	38
2.57395	34
2.57367	40
2.57339	38
2.57311	42
2.57283	42
2.57255	30
2.57227	40
2.57199	36
2.57171	36
2.57143	36
2.57115	38
2.57086	36
2.57058	30
2.5703	40
2.57002	38
2.56974	44
2.56946	40
2.56918	36
2.5689	38
2.56862	40
2.56834	40
2.56806	40
2.56778	38
2.5675	42
2.56722	34
2.56694	34
2.56667	44
2.56639	34
2.56611	34
2.56583	40
2.56555	40
2.56527	42
2.56499	38
2.56471	36
2.56443	42
2.56415	44
2.56387	32
2.56359	44
2.56332	40
2.56304	42
2.56276	36
2.56248	40
2.5622	40
2.56192	38
2.56164	34
2.56137	52
2.56109	42
2.56081	38
2.56053	42
2.56025	40
2.55998	40
2.5597	34
2.55942	44
2.55914	42
2.55886	38
2.55859	40
2.55831	40
2.55803	44
2.55775	54
2.55748	42
2.5572	38
2.55692	44
2.55664	44
2.55637	40
2.55609	52
2.55581	36
2.55554	34
2.55526	46
2.55498	42
2.5547	44
2.55443	46
2.55415	38
2.55387	50
2.5536	40
2.55332	42
2.55305	44
2.55277	42
2.55249	42
2.55222	44
2.55194	46
2.55166	50
2.55139	48
2.55111	48
2.55084	48
2.55056	46
2.55028	38
2.55001	44
2.54973	42
2.54946	46
2.54918	44
2.54891	48
2.54863	38
2.54836	46
2.54808	48
2.5478	46
2.54753	48
2.54725	48
2.54698	46
2.5467	44
2.54643	48
2.54615	46
2.54588	44
2.5456	44
2.54533	44
2.54505	52
2.54478	44
2.54451	48
2.54423	46
2.54396	50
2.54368	48
2.54341	56
2.54313	44
2.54286	46
2.54259	42
2.54231	52
2.54204	56
2.54176	50
2.54149	50
2.54122	50
2.54094	54
2.54067	42
2.5404	44
2.54012	52
2.53985	48
2.53957	54
2.5393	50
2.53903	52
2.53875	48
2.53848	48
2.53821	42
2.53794	56
2.53766	42
2.53739	46
2.53712	42
2.53684	56
2.53657	52
2.5363	55
2.53603	58
2.53575	54
2.53548	52
2.53521	50
2.53494	48
2.53466	44
2.53439	48
2.53412	54
2.53385	52
2.53357	50
2.5333	50
2.53303	44
2.53276	56
2.53249	54
2.53222	52
2.53194	48
2.53167	50
2.5314	50
2.53113	56
2.53086	54
2.53059	52
2.53031	46
2.53004	56
2.52977	52
2.5295	48
2.52923	50
2.52896	58
2.52869	50
2.52842	54
2.52815	50
2.52787	60
2.5276	50
2.52733	64
2.52706	48
2.52679	46
2.52652	54
2.52625	52
2.52598	54
2.52571	58
2.52544	58
2.52517	68
2.5249	54
2.52463	60
2.52436	54
2.52409	58
2.52382	64
2.52355	58
2.52328	64
2.52301	60
2.52274	58
2.52247	56
2.5222	62
2.52193	54
2.52166	56
2.52139	54
2.52112	52
2.52085	64
2.52059	50
2.52032	58
2.52005	60
2.51978	64
2.51951	64
2.51924	56
2.51897	60
2.5187	54
2.51843	48
2.51817	64
2.5179	64
2.51763	62
2.51736	62
2.51709	60
2.51682	68
2.51656	62
2.51629	60
2.51602	66
2.51575	54
2.51548	60
2.51521	60
2.51495	64
2.51468	60
2.51441	64
2.51414	76
2.51388	62
2.51361	56
2.51334	70
2.51307	62
2.51281	60
2.51254	52
2.51227	62
2.512	70
2.51174	74
2.51147	60
2.5112	72
2.51093	56
2.51067	68
2.5104	76
2.51013	74
2.50987	70
2.5096	74
2.50933	60
2.50907	74
2.5088	56
2.50853	72
2.50827	72
2.508	82
2.50773	62
2.50747	62
2.5072	76
2.50694	64
2.50667	60
2.5064	68
2.50614	72
2.50587	66
2.50561	76
2.50534	76
2.50507	64
2.50481	74
2.50454	74
2.50428	72
2.50401	68
2.50375	74
2.50348	76
2.50322	72
2.50295	74
2.50269	82
2.50242	76
2.50216	72
2.50189	70
2.50163	70
2.50136	78
2.5011	74
2.50083	66
2.50057	74
2.5003	70
2.50004	82
2.49977	78
2.49951	78
2.49924	90
2.49898	72
2.49871	66
2.49845	86
2.49819	74
2.49792	70
2.49766	72
2.49739	84
2.49713	70
2.49687	76
2.4966	76
2.49634	76
2.49607	72
2.49581	76
2.49555	78
2.49528	78
2.49502	96
2.49476	86
2.49449	80
2.49423	86
2.49397	82
2.4937	82
2.49344	82
2.49318	92
2.49291	80
2.49265	68
2.49239	94
2.49212	94
2.49186	92
2.4916	82
2.49134	88
2.49107	90
2.49081	96
2.49055	82
2.49029	90
2.49002	92
2.48976	90
2.4895	90
2.48924	88
2.48897	96
2.48871	92
2.48845	86
2.48819	92
2.48793	86
2.48766	82
2.4874	100
2.48714	86
2.48688	98
2.48662	88
2.48636	90
2.48609	94
2.48583	88
2.48557	88
2.48531	82
2.48505	96
2.48479	88
2.48453	100
2.48427	90
2.484	102
2.48374	102
2.48348	94
2.48322	90
2.48296	104
2.4827	100
2.48244	94.3069
2.48218	82.6348
2.48192	96.9156
2.48166	101.525
2.4814	96.1086
2.48114	113.67
2.48088	91.8591
2.48061	110.826
2.48035	95.0566
2.48009	108.539
2.47983	93.4059
2.47957	114.585
2.47931	99.6051
2.47905	101.244
2.47879	113.275
2.47853	103.943
2.47827	109.435
2.47801	101.571
2.47775	116.284
2.47749	111.573
2.47724	105.874
2.47698	108.684
2.47672	123.882
2.47646	120.675
2.4762	117.307
2.47594	117.465
2.47568	119.644
2.47542	125.032
2.47516	112.778
2.4749	126.851
2.47464	112.684
2.47438	122.543
2.47412	118.129
2.47387	124.053
2.47361	126.834
2.47335	125.04
2.47309	116.604
2.47283	138.46
2.47257	135.347
2.47231	134.996
2.47205	129.849
2.4718	134.176
2.47154	132.259
2.47128	133.983
2.47102	127.579
2.47076	142.039
2.47051	128.84
2.47025	134.206
2.46999	135.44
2.46973	142.009
2.46947	147.473
2.46922	139.546
2.46896	142.623
2.4687	147.24
2.46844	143.93
2.46818	148.405
2.46793	142.301
2.46767	148.492
2.46741	153.623
2.46715	157.598
2.4669	155.245
2.46664	152.368
2.46638	146.441
2.46613	156.634
2.46587	155.441
2.46561	159.614
2.46535	165.146
2.4651	167.034
2.46484	160.762
2.46458	158.348
2.46433	161.937
2.46407	164.862
2.46381	166.745
2.46356	163.085
2.4633	165.795
2.46304	165.585
2.46279	167.871
2.46253	168.484
2.46227	172.624
2.46202	175.706
2.46176	171.199
2.46151	172.7
2.46125	173.256
2.46099	179.218
2.46074	175.608
2.46048	181.871
2.46023	181.951
2.45997	185.16
2.45971	185.25
2.45946	176.535
2.4592	180.779
2.45895	173.73
2.45869	180.537
2.45844	198.434
2.45818	201.588
2.45792	194.153
2.45767	189.633
2.45741	200.752
2.45716	208.906
2.4569	211.951
2.45665	190.599
2.45647	188
2.45621	202
2.45596	210
2.4557	216
2.45544	206
2.45519	218
2.45493	196
2.45468	210
2.45442	216
2.45416	204
2.45391	210
2.45365	206
2.4534	222
2.45314	192
2.45289	206
2.45263	214
2.45238	216
2.45212	220
2.45187	220
2.45161	232
2.45136	214
2.4511	214
2.45085	210
2.45059	232
2.45034	224
2.45008	220
2.44983	210
2.44957	228
2.44932	234
2.44906	232
2.44881	224
2.44856	222
2.4483	256
2.44805	222
2.44779	218
2.44754	240
2.44728	224
2.44703	244
2.44678	236
2.44652	226
2.44627	222
2.44601	234
2.44576	262
2.44551	244
2.44525	236
2.445	234
2.44475	238
2.44449	256
2.44424	250
2.44399	242
2.44373	234
2.44348	238
2.44323	242
2.44297	256
2.44272	232
2.44247	238
2.44221	246
2.44196	244
2.44171	242
2.44145	262
2.4412	236
2.44095	238
2.4407	250
2.44044	248
2.44019	256
2.43994	250
2.43969	252
2.43943	270
2.43918	260
2.43893	256
2.43868	256
2.43842	282
2.43817	266
2.43792	256
2.43767	266
2.43742	254
2.43716	274
2.43691	262
2.43666	256
2.43641	268
2.43616	256
2.4359	270
2.43565	266
2.4354	274
2.43515	256
2.4349	278
2.43465	248
2.4344	274
2.43414	290
2.43389	286
2.43364	274
2.43339	260
2.43314	280
2.43289	282
2.43264	272
2.43239	274
2.43214	272
2.43188	288
2.43163	282
2.43138	276
2.43113	274
2.43088	274
2.43063	298
2.43038	282
2.43013	256
2.42988	266
2.42963	300
2.42938	304
2.42913	280
2.42888	302
2.42863	276
2.42838	270
2.42813	274
2.42788	306
2.42763	294
2.42738	290
2.42713	270
2.42688	284
2.42663	288
2.42638	264
2.42613	290
2.42588	284
2.42563	284
2.42538	282
2.42513	288
2.42488	298
2.42463	298
2.42438	298
2.42413	296
2.42389	298
2.42364	306
2.42339	306
2.42314	312
2.42289	320
2.42264	284
2.42239	296
2.42214	308
2.42189	292
2.42165	314
2.4214	316
2.42115	310
2.4209	294
2.42065	314
2.4204	312
2.42016	314
2.41991	314
2.41966	322
2.41941	320
2.41916	306
2.41891	306
2.41867	310
2.41842	316
2.41817	318
2.41792	316
2.41768	330
2.41743	328
2.41718	344
2.41693	326
2.41668	314
2.41644	322
2.41619	314
2.41594	292
2.41569	322
2.41545	304
2.4152	320
2.41495	306
2.41471	308
2.41446	326
2.41421	302
2.41396	318
2.41372	304
2.41347	322
2.41322	346
2.41298	320
2.41273	340
2.41248	336
2.41224	314
2.41199	332
2.41174	334
2.4115	340
2.41125	346
2.411	352
2.41076	326
2.41051	342
2.41027	326
2.41002	324
2.40977	354
2.40953	314
2.40928	354
2.40903	328
2.40879	342
2.40854	338
2.4083	330
2.40805	344
2.40781	360
2.40756	348
2.40731	324
2.40707	346
2.40682	342
2.40658	348
2.40633	360
2.40609	360
2.40584	374
2.4056	330
2.40535	358
2.40511	354
2.40486	332
2.40462	342
2.40437	360
2.40413	330
2.40388	342
2.40364	342
2.40339	342
2.40315	386
2.4029	330
2.40266	360
2.40241	346
2.40217	360
2.40192	362
2.40168	360
2.40144	336
2.40119	344
2.40095	370
2.4007	366
2.40046	342
2.40021	354
2.39997	368
2.39973	348
2.39948	382
2.39924	358
2.39899	380
2.39875	364
2.39851	346
2.39826	352
2.39802	362
2.39778	346
2.39753	348
2.39729	386
2.39705	386
2.3968	366
2.39656	378
2.39632	352
2.39607	364
2.39583	380
2.39559	376
2.39534	360
2.3951	402
2.39486	372
2.39461	352
2.39437	346
2.39413	402
2.39389	380
2.39364	364
2.3934	366
2.39316	364
2.39292	372
2.39267	368
2.39243	382
2.39219	374
2.39195	376
2.3917	388
2.39146	372
2.39122	384
2.39098	378
2.39073	384
2.39049	370
2.39025	376
2.39001	350
2.38977	368
2.38953	372
2.38928	394
2.38904	378
2.3888	386
2.38856	356
2.38832	398
2.38808	396
2.38783	382
2.38759	400
2.38735	364
2.38711	390
2.38687	406
2.38663	378
2.38639	388
2.38614	388
2.3859	382
2.38566	384
2.38542	390
2.38518	394
2.38494	380
2.3847	368
2.38446	402
2.38422	360
2.38398	380
2.38374	388
2.3835	388
2.38326	370
2.38301	380
2.38277	384
2.38253	374
2.38229	386
2.38205	406
2.38181	366
2.38157	408
2.38133	392
2.38109	400
2.38085	390
2.38061	400
2.38037	406
2.38013	366
2.37989	388
2.37965	400
2.37941	406
2.37917	396
2.37893	378
2.37869	408
2.37846	392
2.37822	410
2.37798	398
2.37774	378
2.3775	426
2.37726	408
2.37702	386
2.37678	382
2.37654	406
2.3763	390
2.37606	406
2.37582	418
2.37558	396
2.37535	392
2.37511	408
2.37487	418
2.37463	422
2.37439	412
2.37415	386
2.37391	382
2.37368	398
2.37344	396
2.3732	374
2.37296	400
2.37272	400
2.37248	394
2.37225	404
2.37201	408
2.37177	386
2.37153	396
2.37129	386
2.37105	402
2.37082	394
2.37058	406
2.37034	402
2.3701	414
2.36987	402
2.36963	394
2.36939	400
2.36915	386
2.36892	410
2.36868	386
2.36844	410
2.3682	396
2.36797	406
2.36773	392
2.36749	392
2.36725	386
2.36702	404
2.36678	384
2.36654	402
2.36631	424
2.36607	378
2.36583	404
2.3656	408
2.36536	406
2.36512	392
2.36489	406
2.36465	400
2.36441	366
2.36418	378
2.36394	376
2.3637	402
2.36347	386
2.36323	408
2.36299	386
2.36276	406
2.36252	380
2.36228	376
2.36205	404
2.36181	390
2.36158	420
2.36134	392
2.3611	396
2.36087	400
2.36063	384
2.3604	402
2.36016	358
2.35993	386
2.35969	388
2.35946	378
2.35922	374
2.35898	386
2.35875	398
2.35851	388
2.35828	388
2.35804	390
2.35781	404
2.35757	396
2.35734	372
2.3571	394
2.35687	372
2.35663	392
2.3564	400
2.35616	368
2.35593	398
2.35569	392
2.35546	396
2.35522	404
2.35499	374
2.35475	374
2.35452	376
2.35429	394
2.35405	390
2.35382	380
2.35358	380
2.35335	384
2.35311	378
2.35288	376
2.35265	380
2.35241	372
2.35218	388
2.35194	380
2.35171	382
2.35148	348
2.35124	374
2.35101	370
2.35077	390
2.35054	368
2.35031	364
2.35007	372
2.34984	368
2.34961	398
2.34937	372
2.34914	360
2.34891	354
2.34867	394
2.34844	378
2.34821	390
2.34797	382
2.34774	376
2.34751	356
2.34727	368
2.34704	354
2.34681	372
2.34658	352
2.34634	356
2.34611	378
2.34588	368
2.34564	356
2.34541	358
2.34518	390
2.34495	348
2.34471	348
2.34448	368
2.34425	378
2.34402	366
2.34378	378
2.34355	376
2.34332	376
2.34309	356
2.34286	370
2.34262	350
2.34239	382
2.34216	354
2.34193	358
2.3417	360
2.34146	368
2.34123	372
2.341	350
2.34077	386
2.34054	352
2.34031	374
2.34007	366
2.33984	352
2.33961	362
2.33938	352
2.33915	322
2.33892	348
2.33869	334
2.33845	350
2.33822	348
2.33799	360
2.33776	338
2.33753	374
2.3373	352
2.33707	346
2.33684	368
2.33661	344
2.33638	358
2.33615	326
2.33591	368
2.33568	354
2.33545	344
2.33522	334
2.33499	334
2.33476	348
2.33453	370
2.3343	342
2.33407	328
2.33384	358
2.33361	350
2.33338	316
2.33315	338
2.33292	330
2.33269	350
2.33246	332
2.33223	330
2.332	348
2.33177	334
2.33154	352
2.33131	312
2.33108	326
2.33085	342
2.33062	332
2.33039	348
2.33016	358
2.32993	340
2.3297	334
2.32948	328
2.32925	334
2.32902	320
2.32879	328
2.32856	318
2.32833	302
2.3281	330
2.32787	336
2.32764	320
2.32741	338
2.32718	340
2.32696	328
2.32673	306
2.3265	338
2.32627	326
2.32604	316
2.32581	344
2.32558	322
2.32536	300
2.32513	314
2.3249	328
2.32467	312
2.32444	330
2.32421	298
2.32399	318
2.32376	308
2.32353	324
2.3233	292
2.32307	316
2.32284	346
2.32262	322
2.32239	300
2.32216	310
2.32193	320
2.32171	288
2.32148	308
2.32125	308
2.32102	318
2.3208	318
2.32057	306
2.32034	314
2.32011	284
2.31989	300
2.31966	316
2.31943	306
2.3192	290
2.31898	302
2.31875	266
2.31852	278
2.3183	306
2.31807	298
2.31784	282
2.31761	286
2.31739	304
2.31716	306
2.31693	292
2.31671	294
2.31648	302
2.31625	286
2.31603	294
2.3158	310
2.31557	290
2.31535	286
2.31512	294
2.3149	302
2.31467	292
2.31444	274
2.31422	298
2.31399	278
2.31376	288
2.31354	282
2.31331	278
2.31309	292
2.31286	272
2.31263	274
2.31241	300
2.31218	284
2.31196	290
2.31173	274
2.31151	292
2.31128	290
2.31105	288
2.31083	300
2.3106	290
2.31038	278
2.31015	300
2.30993	280
2.3097	278
2.30948	302
2.30925	270
2.30903	304
2.3088	280
2.30858	292
2.30835	298
2.30813	308
2.3079	272
2.30768	278
2.30745	279
2.30723	280
2.307	292
2.30678	270
2.30655	278
2.30633	296
2.3061	260
2.30588	276
2.30565	262
2.30543	264
2.30521	288
2.30498	268
2.30476	264
2.30453	262
2.30431	286
2.30408	254
2.30386	248
2.30364	258
2.30341	260
2.30319	268
2.30296	256
2.30274	254
2.30252	274
2.30229	260
2.30207	246
2.30185	262
2.30162	244
2.3014	260
2.30118	250
2.30095	286
2.30073	242
2.3005	258
2.30028	252
2.30006	270
2.29983	252
2.29961	264
2.29939	258
2.29917	248
2.29894	242
2.29872	270
2.2985	256
2.29827	244
2.29805	238
2.29783	238
2.2976	256
2.29738	242
2.29716	246
2.29694	254
2.29671	274
2.29649	248
2.29627	250
2.29605	242
2.29582	234
2.2956	240
2.29538	258
2.29516	266
2.29493	242
2.29471	244
2.29449	244
2.29427	242
2.29405	224
2.29382	230
2.2936	250
2.29338	236
2.29316	248
2.29294	252
2.29271	242
2.29249	244
2.29227	246
2.29205	216
2.29183	256
2.29161	254
2.29138	248
2.29116	240
2.29094	238
2.29072	238
2.2905	236
2.29028	268
2.29006	230
2.28983	212
2.28961	234
2.28939	234
2.28917	242
2.28895	252
2.28873	224
2.28851	230
2.28829	244
2.28807	226
2.28785	248
2.28762	220
2.2874	238
2.28718	258
2.28696	238
2.28674	250
2.28652	232
2.2863	222
2.28608	230
2.28586	234
2.28564	250
2.28542	220
2.2852	242
2.28498	214
2.28476	238
2.28454	212
2.28432	250
2.2841	236
2.28388	216
2.28366	222
2.28344	224
2.28322	200
2.283	220
2.28278	230
2.28256	204
2.28234	216
2.28212	222
2.2819	224
2.28168	224
2.28146	232
2.28124	226
2.28102	226
2.2808	232
2.28058	226
2.28036	220
2.28014	228
2.27992	210
2.27971	208
2.27949	220
2.27927	214
2.27905	222
2.27883	208
2.27861	206
2.27839	220
2.27817	220
2.27795	204
2.27773	184
2.27752	220
2.2773	198
2.27708	198
2.27686	228
2.27664	196
2.27642	216
2.2762	220
2.27599	212
2.27577	204
2.27555	222
2.27533	216
2.27511	224
2.27489	206
2.27468	204
2.27446	186
2.27424	214
2.27402	208
2.2738	212
2.27359	208
2.27337	184
2.27315	188
2.27293	222
2.27272	222
2.2725	206
2.27228	208
2.27206	210
2.27184	194
2.27163	200
2.27141	208
2.27119	218
2.27097	204
2.27076	198
2.27054	210
2.27032	202
2.27011	204
2.26989	212
2.26967	188
2.26945	202
2.26924	190
2.26902	190
2.2688	210
2.26859	198
2.26837	190
2.26815	204
2.26794	222
2.26772	200
2.2675	194
2.26728	192
2.26707	188
2.26685	192
2.26663	182
2.26642	200
2.2662	196
2.26599	198
2.26577	200
2.26555	188
2.26534	194
2.26512	182
2.2649	190
2.26469	188
2.26447	184
2.26426	192
2.26404	182
2.26382	202
2.26361	186
2.26339	198
2.26318	198
2.26296	194
2.26274	192.061
2.26253	176.548
2.26231	188.679
2.2621	198.531
2.26188	188.746
2.26167	189.905
2.26145	177.049
2.26124	198.6
2.26102	174.313
2.2608	192.943
2.26059	187.821
2.26037	191.22
2.26016	189.835
2.25994	179.039
2.25973	189.963
2.25951	185.778
2.2593	177.96
2.25908	176.941
2.25887	199.008
2.25865	191.3
2.25844	191.312
2.25822	178.318
2.25801	186.625
2.25779	190.001
2.25758	183.106
2.25736	181.883
2.25715	192.529
2.25693	182.449
2.25672	183.814
2.25651	191.642
2.25629	172.465
2.25608	190.26
2.25586	186.565
2.25565	184.752
2.25543	196.72
2.25522	173.854
2.25501	172.018
2.25479	194.828
2.25458	188.558
2.25436	189.716
2.25415	185.455
2.25393	176.447
2.25372	175.421
2.25351	169.96
2.25329	182.668
2.25308	184.201
2.25287	180.185
2.25265	182.601
2.25244	173.299
2.25222	172.125
2.25201	175.628
2.2518	167.39
2.25158	175.702
2.25137	180.555
2.25116	172.033
2.25094	173.114
2.25073	182.98
2.25052	170.42
2.2503	176.014
2.25009	176.66
2.24988	186.103
2.24966	176.325
2.24945	178.301
2.24924	188.975
2.24902	178.587
2.24881	183.731
2.2486	174.798
2.24839	162.718
2.24817	174.263
2.24796	182.518
2.24775	179.248
2.24753	178.474
2.24732	168.983
2.24711	165.158
2.2469	184.834
2.24668	178.718
2.24647	165.757
2.24626	177
2.24605	165.181
2.24583	178.973
2.24562	169.925
2.24541	173.846
2.2452	171.192
2.24499	175.094
2.24477	164.267
2.24456	168.321
2.24435	161.57
2.24414	163.854
2.24392	168.509
2.24371	168.321
2.2435	174.54
2.24329	159.726
2.24308	166.168
2.24286	169.399
2.24265	168.033
2.24244	177.087
2.24223	172.21
2.24202	171.6
2.24181	170.353
2.2416	189.483
2.24139	168
2.24117	158
2.24096	166
2.24075	170
2.24054	168
2.24032	148
2.24011	152
2.2399	158
2.23969	148
2.23948	172
2.23926	168
2.23905	166
2.23884	174
2.23863	162
2.23842	168
2.2382	150
2.23799	156
2.23778	164
2.23757	168
2.23736	148
2.23715	158
2.23694	160
2.23672	174
2.23651	154
2.2363	168
2.23609	166
2.23588	148
2.23567	176
2.23546	168
2.23524	162
2.23503	154
2.23482	172
2.23461	172
2.2344	156
2.23419	166
2.23398	168
2.23377	164
2.23356	150
2.23335	166
2.23313	168
2.23292	166
2.23271	152
2.2325	150
2.23229	146
2.23208	144
2.23187	156
2.23166	140
2.23145	152
2.23124	150
2.23103	158
2.23082	148
2.23061	158
2.2304	146
2.23019	150
2.22998	154
2.22977	168
2.22956	160
2.22935	154
2.22914	146
2.22893	170
2.22872	136
2.22851	142
2.2283	154
2.22809	146
2.22788	158
2.22767	148
2.22746	142
2.22725	156
2.22704	144
2.22683	162
2.22662	142
2.22641	164
2.2262	132
2.22599	148
2.22578	146
2.22557	152
2.22536	140
2.22516	154
2.22495	144
2.22474	154
2.22453	158
2.22432	144
2.22411	148
2.2239	156
2.22369	140
2.22348	136
2.22327	140
2.22307	146
2.22286	164
2.22265	148
2.22244	150
2.22223	152
2.22202	142
2.22181	140
2.2216	134
2.2214	152
2.22119	136
2.22098	134
2.22077	142
2.22056	138
2.22035	136
2.22015	152
2.21994	154
2.21973	134
2.21952	146
2.21931	160
2.21911	146
2.2189	136
2.21869	128
2.21848	134
2.21827	160
2.21807	146
2.21786	146
2.21765	136
2.21744	134
2.21723	134
2.21703	152
2.21682	134
2.21661	136
2.2164	136
2.2162	132
2.21599	144
2.21578	140
2.21557	130
2.21537	136
2.21516	132
2.21495	138
2.21475	128
2.21454	134
2.21433	130
2.21412	126
2.21392	134
2.21371	138
2.2135	132
2.2133	154
2.21309	126
2.21288	144
2.21268	132
2.21247	148
2.21226	136
2.21206	128
2.21185	138
2.21164	134
2.21144	138
2.21123	128
2.21102	136
2.21082	134
2.21061	138
2.2104	126
2.2102	146
2.20999	128
2.20979	146
2.20958	138
2.20937	126
2.20917	134
2.20896	128
2.20876	140
2.20855	122
2.20834	128
2.20814	136
2.20793	126
2.20773	124
2.20752	132
2.20731	136
2.20711	150
2.2069	126
2.2067	132
2.20649	120
2.20629	122
2.20608	132
2.20588	136
2.20567	124
2.20546	124
2.20526	134
2.20505	114
2.20485	138
2.20464	136
2.20444	122
2.20423	136
2.20403	130
2.20382	124
2.20362	128
2.20341	128
2.20321	134
2.203	136
2.2028	122
2.20259	134
2.20239	134
2.20218	130
2.20198	132
2.20177	134
2.20157	142
2.20137	122
2.20116	114
2.20096	132
2.20075	122
2.20055	126
2.20034	128
2.20014	126
2.19993	134
2.19973	120
2.19953	134
2.19932	132
2.19912	118
2.19891	134
2.19871	118
2.19851	134
2.1983	126
2.1981	122
2.19789	130
2.19769	106
2.19749	124
2.19728	134
2.19708	124
2.19687	122
2.19667	126
2.19647	128
2.19626	128
2.19606	130
2.19586	136
2.19565	124
2.19545	128
2.19525	126
2.19504	118
2.19484	112
2.19464	124
2.19443	112
2.19423	120
2.19403	118
2.19382	116
2.19362	118
2.19342	126
2.19321	124
2.19301	130
2.19281	114
2.19261	120
2.1924	126
2.1922	110
2.192	116
2.19179	108
2.19159	120
2.19139	126
2.19119	108
2.19098	124
2.19078	128
2.19058	120
2.19038	128
2.19017	118
2.18997	120
2.18977	128
2.18957	142
2.18936	112
2.18916	122
2.18896	124
2.18876	122
2.18856	122
2.18835	122
2.18815	126
2.18795	122
2.18775	116
2.18755	110
2.18734	122
2.18714	116
2.18694	116
2.18674	120
2.18654	120
2.18634	128
2.18613	124
2.18593	124
2.18573	116
2.18553	116
2.18533	132
2.18513	124
2.18493	116
2.18472	130
2.18452	114
2.18432	126
2.18412	122
2.18392	118
2.18372	116
2.18352	116
2.18332	120
2.18311	108
2.18291	128
2.18271	130
2.18251	114
2.18231	108
2.18211	128
2.18191	120
2.18171	120
2.18151	110
2.18131	116
2.18111	112
2.18091	120
2.1807	118
2.1805	114
2.1803	116
2.1801	120
2.1799	128
2.1797	116
2.1795	122
2.1793	106
2.1791	100
2.1789	122
2.1787	108
2.1785	122
2.1783	118
2.1781	116
2.1779	122
2.1777	124
2.1775	120
2.1773	112
2.1771	110
2.1769	112
2.1767	116
2.1765	120
2.1763	120
2.1761	112
2.1759	110
2.1757	116
2.1755	122
2.1753	118
2.1751	116
2.1749	124
2.17471	100
2.17451	110
2.17431	120
2.17411	108
2.17391	130
2.17371	104
2.17351	126
2.17331	118
2.17311	104
2.17291	124
2.17271	116
2.17251	110
2.17232	112
2.17212	116
2.17192	118
2.17172	114
2.17152	108
2.17132	114
2.17112	116
2.17092	120
2.17072	120
2.17053	106
2.17033	106
2.17013	124
2.16993	134
2.16973	108
2.16953	120
2.16934	122
2.16914	114
2.16894	112
2.16874	104
2.16854	128
2.16834	124
2.16815	108
2.16795	108
2.16775	114
2.16755	114
2.16735	116
2.16716	114
2.16696	118
2.16676	112
2.16656	102
2.16636	118
2.16617	116
2.16597	112
2.16577	118
2.16557	124
2.16538	100
2.16518	118
2.16498	110
2.16478	126
2.16459	110
2.16439	102
2.16419	108
2.16399	122
2.1638	118
2.1636	118
2.1634	112
2.1632	130
2.16301	102
2.16281	108
2.16261	118
2.16242	118
2.16222	98
2.16202	116
2.16182	104
2.16163	114
2.16143	104
2.16123	112
2.16104	118
2.16084	110
2.16064	118
2.16045	102
2.16025	104
2.16005	114
2.15986	120
2.15966	106
2.15946	110
2.15927	116
2.15907	98
2.15887	110
2.15868	112
2.15848	114
2.15829	116
2.15809	112
2.15789	108
2.1577	118
2.1575	90
2.1573	118
2.15711	110
2.15691	106
2.15672	104
2.15652	112
2.15632	106
2.15613	112
2.15593	102
2.15574	112
2.15554	122
2.15535	112
2.15515	104
2.15495	112
2.15476	120
2.15456	114
2.15437	110
2.15417	116
2.15398	112
2.15378	106
2.15359	120
2.15339	120
2.1532	116
2.153	128
2.1528	98
2.15261	104
2.15241	114
2.15222	126
2.15202	110
2.15183	118
2.15163	114
2.15144	108
2.15124	106
2.15105	114
2.15085	110
2.15066	108
2.15046	108
2.15027	108
2.15008	118
2.14988	114
2.14969	104
2.14949	106
2.1493	112
2.1491	110
2.14891	106
2.14871	102
2.14852	92
2.14832	114
2.14813	118
2.14794	108
2.14774	108
2.14755	116
2.14735	106
2.14716	128
2.14697	122
2.14677	110
2.14658	114
2.14638	106
2.14619	114
2.14599	102
2.1458	130
2.14561	104
2.14541	110
2.14522	112
2.14503	120
2.14483	116
2.14464	98
2.14444	106
2.14425	122
2.14406	114
2.14386	116
2.14367	106
2.14348	116
2.14328	124
2.14309	112
2.1429	114
2.1427	102
2.14251	118
2.14232	108
2.14212	108
2.14193	112
2.14174	106
2.14154	96
2.14135	108
2.14116	118
2.14097	98
2.14077	110
2.14058	120
2.14039	112
2.14019	102
2.14	100
2.13981	116
2.13962	104
2.13942	106
2.13923	114
2.13904	118
2.13884	110
2.13865	104
2.13846	112
2.13827	114
2.13808	106
2.13788	112
2.13769	104
2.1375	108
2.13731	100
2.13711	104
2.13692	124
2.13673	116
2.13654	100
2.13634	104
2.13615	112
2.13596	124
2.13577	122
2.13558	110
2.13538	118
2.13519	118
2.135	112
2.13481	108
2.13462	104
2.13443	106
2.13423	102
2.13404	104
2.13385	110
2.13366	108
2.13347	106
2.13328	98
2.13308	104
2.13289	110
2.1327	98
2.13251	98
2.13232	112
2.13213	102
2.13194	112
2.13175	108
2.13155	116
2.13136	102
2.13117	110
2.13098	112
2.13079	114
2.1306	114
2.13041	114
2.13022	106
2.13003	110
2.12983	104
2.12964	110
2.12945	116
2.12926	114
2.12907	118
2.12888	98
2.12869	112
2.1285	102
2.12831	118
2.12812	110
2.12793	122
2.12774	98
2.12755	110
2.12736	98
2.12717	130
2.12698	92
2.12679	110
2.1266	112
2.12641	108
2.12621	106
2.12602	116
2.12583	110
2.12564	108
2.12545	102
2.12526	104
2.12507	118
2.12488	106
2.12469	122
2.1245	104
2.12432	116
2.12413	104
2.12394	110
2.12375	96
2.12356	94
2.12337	104
2.12318	112
2.12299	108
2.1228	108
2.12261	112
2.12242	100
2.12223	110
2.12204	98
2.12185	110
2.12166	96
2.12147	116
2.12128	126
2.12109	132
2.1209	102
2.12071	110
2.12053	102
2.12034	100
2.12015	108
2.11996	122
2.11977	108
2.11958	110
2.11939	106
2.1192	112
2.11901	102
2.11883	110
2.11864	112
2.11845	110
2.11826	114
2.11807	100
2.11788	104
2.11769	108
2.1175	106
2.11732	112
2.11713	108
2.11694	104
2.11675	124
2.11656	104
2.11637	112
2.11619	116
2.116	102
2.11581	110
2.11562	102
2.11543	104
2.11524	108
2.11506	114
2.11487	102
2.11468	110
2.11449	108
2.1143	106
2.11412	106
2.11393	114
2.11374	122
2.11355	94
2.11337	110
2.11318	108
2.11299	104
2.1128	120
2.11261	116
2.11243	116
2.11224	100
2.11205	108
2.11186	98
2.11168	108
2.11149	102
2.1113	110
2.11111	108
2.11093	110
2.11074	108
2.11055	110
2.11037	98
2.11018	100
2.10999	110
2.1098	116
2.10962	116
2.10943	108
2.10924	88
2.10906	116
2.10887	108
2.10868	110
2.1085	112
2.10831	100
2.10812	92
2.10793	104
2.10775	116
2.10756	114
2.10738	110
2.10719	106
2.107	114
2.10682	98
2.10663	94
2.10644	108
2.10626	108
2.10607	84
2.10588	106
2.1057	106
2.10551	108
2.10532	106
2.10514	114
2.10495	98
2.10477	104
2.10458	100
2.10439	102
2.10421	104
2.10402	114
2.10384	124
2.10365	108
2.10346	112
2.10328	100
2.10309	106
2.10291	102
2.10272	106
2.10253	116
2.10235	110
2.10216	114
2.10198	112
2.10179	108
2.10161	106
2.10142	106
2.10123	108
2.10105	100
2.10086	108
2.10068	108
2.10049	110
2.10031	108
2.10012	108
2.09994	108
2.09975	112
2.09957	112
2.09938	116
2.0992	102
2.09901	110
2.09883	104
2.09864	102
2.09846	110
2.09827	108
2.09809	98
2.0979	112
2.09772	120
2.09753	112
2.09735	116
2.09716	94
2.09698	96
2.09679	106
2.09661	110
2.09642	98
2.09624	108
2.09605	116
2.09587	98
2.09569	106
2.0955	112
2.09532	98
2.09513	120
2.09495	112
2.09476	112
2.09458	120
2.0944	114
2.09421	110
2.09403	88
2.09384	100
2.09366	112
2.09347	104
2.09329	100
2.09311	116
2.09292	100
2.09274	114
2.09256	116
2.09237	106
2.09219	102
2.092	108
2.09182	108
2.09164	114
2.09145	116
2.09127	106
2.09109	118
2.0909	112
2.09072	108
2.09053	98
2.09035	110
2.09017	110
2.08998	108
2.0898	110
2.08962	100
2.08943	102
2.08925	108
2.08907	108
2.08888	102
2.0887	102
2.08852	106
2.08834	100
2.08815	114
2.08797	102
2.08779	116
2.0876	114
2.08742	114
2.08724	112
2.08705	110
2.08687	108
2.08669	112
2.08651	110
2.08632	114
2.08614	110
2.08596	92
2.08578	114
2.08559	112
2.08541	108
2.08523	110
2.08504	110
2.08486	98
2.08468	106
2.0845	122
2.08432	122
2.08413	106
2.08395	106
2.08377	102
2.08359	106
2.0834	106
2.08322	114
2.08304	110
2.08286	104
2.08268	104
2.08249	106
2.08231	108
2.08213	104
2.08195	116
2.08177	120
2.08158	108
2.0814	102
2.08122	110
2.08104	114
2.08086	112
2.08068	124
2.08049	110
2.08031	102
2.08013	100
2.07995	117.978
2.07977	102.079
2.07959	106.029
2.0794	111.87
2.07922	104.18
2.07904	110.182
2.07886	98.4717
2.07868	108.4
2.0785	106.225
2.07832	107.506
2.07814	102.659
2.07795	107.549
2.07777	109.391
2.07759	100.992
2.07741	101.136
2.07723	115.622
2.07705	106.815
2.07687	111.152
2.07669	107.696
2.07651	103.684
2.07632	106.572
2.07614	100.658
2.07596	111.386
2.07578	120.581
2.0756	102.166
2.07542	97.6168
2.07524	103.825
2.07506	113.896
2.07488	107.465
2.0747	104.376
2.07452	108.788
2.07434	110.072
2.07416	115.67
2.07398	107.065
2.0738	104.596
2.07362	103.869
2.07344	105.722
2.07325	107.986
2.07307	105.989
2.07289	97.3206
2.07271	106.491
2.07253	106.825
2.07235	101.773
2.07217	101.307
2.07199	105.745
2.07181	108.143
2.07163	107.471
2.07145	107.865
2.07127	98.3866
2.07109	102.259
2.07091	107.301
2.07073	98.3735
2.07055	109.514
2.07037	96.7647
2.07019	111.046
2.07001	105.289
2.06984	107.784
2.06966	103.766
2.06948	101.055
2.0693	110.561
2.06912	106.404
2.06894	102.925
2.06876	111.842
2.06858	112.036
2.0684	117.679
2.06822	110.422
2.06804	112.55
2.06786	105.898
2.06768	101.54
2.0675	119.966
2.06732	101.872
2.06714	108.591
2.06696	105.944
2.06679	112.607
2.06661	100.15
2.06643	115.46
2.06625	101.386
2.06607	109.833
2.06589	108.314
2.06571	105.991
2.06553	103.08
2.06535	102.968
2.06518	102.541
2.065	109.285
2.06482	105.14
2.06464	107.912
2.06446	101.967
2.06428	101.716
2.0641	111.596
2.06392	111.367
2.06375	104.905
2.06357	106.647
2.06339	104.716
2.06321	114.241
2.06303	110.137
2.06285	105.897
2.06267	113.042
2.0625	115.159
2.06232	107.036
2.06214	110.679
2.06196	122.159
2.06178	104.945
2.06176	102
2.06158	104
2.0614	106
2.06122	108
2.06104	96
2.06086	108
2.06069	102
2.06051	114
2.06033	94
2.06015	120
2.05997	120
2.05979	102
2.05961	118
2.05944	100
2.05926	104
2.05908	108
2.0589	110
2.05872	116
2.05854	118
2.05836	106
2.05819	104
2.05801	114
2.05783	112
2.05765	110
2.05747	102
2.05729	92
2.05712	104
2.05694	114
2.05676	106
2.05658	102
2.0564	104
2.05623	114
2.05605	98
2.05587	110
2.05569	122
2.05551	96
2.05534	106
2.05516	110
2.05498	98
2.0548	108
2.05463	118
2.05445	110
2.05427	100
2.05409	100
2.05392	108
2.05374	96
2.05356	120
2.05338	104
2.05321	114
2.05303	106
2.05285	108
2.05267	118
2.0525	120
2.05232	106
2.05214	114
2.05196	110
2.05179	114
2.05161	102
2.05143	100
2.05126	98
2.05108	96
2.0509	112
2.05072	108
2.05055	92
2.05037	114
2.05019	104
2.05002	100
2.04984	104
2.04966	100
2.04949	102
2.04931	102
2.04913	100
2.04896	116
2.04878	118
2.0486	102
2.04843	102
2.04825	98
2.04807	106
2.0479	100
2.04772	98
2.04754	116
2.04737	108
2.04719	102
2.04701	100
2.04684	118
2.04666	98
2.04649	102
2.04631	114
2.04613	110
2.04596	100
2.04578	114
2.04561	104
2.04543	100
2.04525	106
2.04508	108
2.0449	100
2.04473	102
2.04455	112
2.04437	104
2.0442	100
2.04402	106
2.04385	110
2.04367	104
2.04349	100
2.04332	90
2.04314	104
2.04297	114
2.04279	110
2.04262	104
2.04244	104
2.04227	94
2.04209	108
2.04191	104
2.04174	102
2.04156	98
2.04139	110
2.04121	98
2.04104	108
2.04086	106
2.04069	122
2.04051	108
2.04034	110
2.04016	108
2.03999	98
2.03981	104
2.03964	102
2.03946	112
2.03929	120
2.03911	98
2.03894	112
2.03876	110
2.03859	102
2.03841	118
2.03824	102
2.03806	98
2.03789	94
2.03771	98
2.03754	102
2.03737	104
2.03719	96
2.03702	100
2.03684	114
2.03667	106
2.03649	112
2.03632	96
2.03614	104
2.03597	102
2.0358	92
2.03562	94
2.03545	104
2.03527	108
2.0351	90
2.03492	94
2.03475	112
2.03458	102
2.0344	114
2.03423	116
2.03405	110
2.03388	102
2.03371	112
2.03353	102
2.03336	104
2.03318	108
2.03301	102
2.03284	124
2.03266	108
2.03249	94
2.03232	122
2.03214	106
2.03197	108
2.03179	108
2.03162	92
2.03145	100
2.03127	108
2.0311	112
2.03093	104
2.03075	110
2.03058	114
2.03041	98
2.03023	102
2.03006	92
2.02989	106
2.02971	102
2.02954	102
2.02937	108
2.02919	106
2.02902	104
2.02885	114
2.02868	108
2.0285	102
2.02833	114
2.02816	104
2.02798	102
2.02781	110
2.02764	110
2.02747	112
2.02729	112
2.02712	116
2.02695	110
2.02677	90
2.0266	100
2.02643	108
2.02626	106
2.02608	94
2.02591	98
2.02574	104
2.02557	98
2.02539	112
2.02522	102
2.02505	102
2.02488	98
2.0247	114
2.02453	106
2.02436	110
2.02419	104
2.02402	110
2.02384	102
2.02367	106
2.0235	106
2.02333	100
2.02315	112
2.02298	100
2.02281	110
2.02264	108
2.02247	94
2.0223	104
2.02212	104
2.02195	110
2.02178	102
2.02161	110
2.02144	92
2.02126	104
2.02109	100
2.02092	92
2.02075	104
2.02058	100
2.02041	106
2.02024	112
2.02006	112
2.01989	106
2.01972	110
2.01955	112
2.01938	112
2.01921	102
2.01904	114
2.01886	96
2.01869	100
2.01852	96
2.01835	114
2.01818	108
2.01801	106
2.01784	108
2.01767	112
2.01749	104
2.01732	110
2.01715	102
2.01698	108
2.01681	102
2.01664	102
2.01647	110
2.0163	102
2.01613	114
2.01596	100
2.01579	110
2.01562	106
2.01544	106
2.01527	110
2.0151	108
2.01493	102
2.01476	106
2.01459	102
2.01442	110
2.01425	100
2.01408	96
2.01391	96
2.01374	108
2.01357	102
2.0134	114
2.01323	112
2.01306	108
2.01289	108
2.01272	92
2.01255	100
2.01238	104
2.01221	96
2.01204	104
2.01187	120
2.0117	116
2.01153	94
2.01136	120
2.01119	102
2.01102	104
2.01085	102
2.01068	108
2.01051	104
2.01034	110
2.01017	100
2.01	106
2.00983	108
2.00966	106
2.00949	118
2.00932	96
2.00915	98
2.00898	114
2.00881	110
2.00864	112
2.00847	120
2.0083	102
2.00814	104
2.00797	114
2.0078	106
2.00763	114
2.00746	98
2.00729	110
2.00712	110
2.00695	104
2.00678	110
2.00661	118
2.00644	104
2.00627	116
2.00611	112
2.00594	106
2.00577	110
2.0056	108
2.00543	114
2.00526	122
2.00509	110
2.00492	118
2.00475	116
2.00459	108
2.00442	94
2.00425	108
2.00408	116
2.00391	108
2.00374	110
2.00357	112
2.00341	108
2.00324	120
2.00307	110
2.0029	104
2.00273	110
2.00256	108
2.0024	118
2.00223	110
2.00206	102
2.00189	116
2.00172	110
2.00155	116
2.00139	132
2.00122	96
2.00105	108
2.00088	118
2.00071	110
2.00055	124
2.00038	110
2.00021	102
2.00004	110
1.99987	110
1.99971	100
1.99954	108
1.99937	110
1.9992	106
1.99903	114
1.99887	104
1.9987	106
1.99853	118
1.99836	126
1.9982	104
1.99803	112
1.99786	124
1.99769	112
1.99753	116
1.99736	112
1.99719	110
1.99702	108
1.99686	118
1.99669	116
1.99652	114
1.99635	118
1.99619	110
1.99602	112
1.99585	116
1.99569	98
1.99552	108
1.99535	100
1.99518	114
1.99502	110
1.99485	116
1.99468	118
1.99452	110
1.99435	110
1.99418	108
1.99402	102
1.99385	120
1.99368	110
1.99352	122
1.99335	112
1.99318	108
1.99302	106
1.99285	108
1.99268	108
1.99252	112
1.99235	104
1.99218	106
1.99202	102
1.99185	118
1.99168	118
1.99152	118
1.99135	100
1.99118	118
1.99102	124
1.99085	110
1.99069	108
1.99052	110
1.99035	110
1.99019	110
1.99002	108
1.98985	118
1.98969	108
1.98952	120
1.98936	104
1.98919	102
1.98902	116
1.98886	130
1.98869	104
1.98853	108
1.98836	106
1.9882	100
1.98803	122
1.98786	122
1.9877	106
1.98753	118
1.98737	124
1.9872	112
1.98704	114
1.98687	108
1.9867	116
1.98654	104
1.98637	114
1.98621	108
1.98604	106
1.98588	104
1.98571	112
1.98555	110
1.98538	122
1.98522	102
1.98505	130
1.98488	130
1.98472	114
1.98455	126
1.98439	112
1.98422	100
1.98406	106
1.98389	118
1.98373	102
1.98356	114
1.9834	118
1.98323	116
1.98307	120
1.9829	122
1.98274	116
1.98257	112
1.98241	106
1.98224	106
1.98208	112
1.98192	114
1.98175	100
1.98159	100
1.98142	104
1.98126	112
1.98109	100
1.98093	112
1.98076	110
1.9806	118
1.98043	110
1.98027	132
1.98011	118
1.97994	114
1.97978	106
1.97961	106
1.97945	116
1.97928	94
1.97912	112
1.97896	116
1.97879	120
1.97863	120
1.97846	120
1.9783	116
1.97813	110
1.97797	116
1.97781	128
1.97764	108
1.97748	116
1.97732	118
1.97715	108
1.97699	104
1.97682	114
1.97666	122
1.9765	118
1.97633	112
1.97617	116
1.976	118
1.97584	120
1.97568	114
1.97551	116
1.97535	120
1.97519	118
1.97502	118
1.97486	102
1.9747	124
1.97453	114
1.97437	122
1.97421	124
1.97404	110
1.97388	110
1.97372	124
1.97355	102
1.97339	118
1.97323	112
1.97306	110
1.9729	128
1.97274	112
1.97257	128
1.97241	118
1.97225	120
1.97209	114
1.97192	110
1.97176	100
1.9716	116
1.97143	114
1.97127	114
1.97111	114
1.97095	108
1.97078	120
1.97062	118
1.97046	110
1.97029	118
1.97013	116
1.96997	124
1.96981	108
1.96964	120
1.96948	116
1.96932	116
1.96916	118
1.96899	114
1.96883	114
1.96867	130
1.96851	114
1.96834	118
1.96818	116
1.96802	114
1.96786	122
1.9677	118
1.96753	108
1.96737	116
1.96721	120
1.96705	124
1.96688	132
1.96672	126
1.96656	116
1.9664	112
1.96624	112
1.96607	114
1.96591	112
1.96575	112
1.96559	112
1.96543	110
1.96527	114
1.9651	132
1.96494	128
1.96478	112
1.96462	124
1.96446	116
1.9643	112
1.96413	100
1.96397	126
1.96381	106
1.96365	114
1.96349	122
1.96333	114
1.96316	116
1.963	122
1.96284	118
1.96268	120
1.96252	118
1.96236	134
1.9622	102
1.96204	104
1.96187	110
1.96171	114
1.96155	124
1.96139	116
1.96123	116
1.96107	122
1.96091	116
1.96075	112
1.96059	114
1.96042	124
1.96026	122
1.9601	120
1.95994	118
1.95978	116
1.95962	106
1.95946	118
1.9593	116
1.95914	122
1.95898	124
1.95882	120
1.95866	130
1.9585	112
1.95834	112
1.95817	106
1.95801	108
1.95785	120
1.95769	116
1.95753	120
1.95737	120
1.95721	118
1.95705	126
1.95689	116
1.95673	119
1.95657	122
1.95641	122
1.95625	106
1.95609	120
1.95593	116
1.95577	120
1.95561	120
1.95545	118
1.95529	126
1.95513	126
1.95497	120
1.95481	124
1.95465	118
1.95449	124
1.95433	124
1.95417	114
1.95401	132
1.95385	130
1.95369	114
1.95353	130
1.95337	116
1.95321	106
1.95305	112
1.95289	130
1.95273	124
1.95257	118
1.95241	114
1.95225	118
1.95209	116
1.95193	106
1.95178	116
1.95162	120
1.95146	114
1.9513	118
1.95114	118
1.95098	118
1.95082	116
1.95066	116
1.9505	110
1.95034	122
1.95018	110
1.95002	118
1.94986	116
1.9497	114
1.94955	126
1.94939	116
1.94923	122
1.94907	120
1.94891	130
1.94875	140
1.94859	120
1.94843	108
1.94827	128
1.94812	114
1.94796	108
1.9478	120
1.94764	128
1.94748	112
1.94732	122
1.94716	136
1.947	118
1.94685	108
1.94669	112
1.94653	120
1.94637	114
1.94621	112
1.94605	118
1.9459	120
1.94574	116
1.94558	120
1.94542	116
1.94526	126
1.9451	114
1.94495	120
1.94479	98
1.94463	120
1.94447	124
1.94431	120
1.94415	118
1.944	120
1.94384	126
1.94368	120
1.94352	118
1.94336	126
1.94321	108
1.94305	110
1.94289	124
1.94273	114
1.94257	112
1.94242	114
1.94226	126
1.9421	122
1.94194	120
1.94179	120
1.94163	114
1.94147	128
1.94131	122
1.94116	106
1.941	122
1.94084	108
1.94068	120
1.94053	120
1.94037	122
1.94021	120
1.94005	120
1.9399	114
1.93974	116
1.93958	124
1.93942	114
1.93927	110
1.93911	114
1.93895	114
1.93879	110
1.93864	114
1.93848	122
1.93832	112
1.93817	112
1.93801	124
1.93785	122
1.93769	122
1.93754	108
1.93738	130
1.93722	114
1.93707	124
1.93691	112
1.93675	130
1.9366	108
1.93644	120
1.93628	122
1.93613	116
1.93597	116
1.93581	126
1.93566	100
1.9355	112
1.93534	120
1.93519	106
1.93503	110
1.93487	130
1.93472	108
1.93456	126
1.9344	114
1.93425	130
1.93409	114
1.93394	124
1.93378	124
1.93362	130
1.93347	108
1.93331	130
1.93315	126
1.933	108
1.93284	114
1.93269	104
1.93253	106
1.93237	126
1.93222	118
1.93206	116
1.9319	122
1.93175	116
1.93159	110
1.93144	122
1.93128	116
1.93113	116
1.93097	114
1.93081	132
1.93066	106
1.9305	116
1.93035	122
1.93019	118
1.93003	118
1.92988	120
1.92972	122
1.92957	106
1.92941	118
1.92926	124
1.9291	130
1.92895	134
1.92879	120
1.92864	126
1.92848	118
1.92832	128
1.92817	128
1.92801	120
1.92786	128
1.9277	136
1.92755	120
1.92739	122
1.92724	124
1.92708	136
1.92693	108
1.92677	124
1.92662	104
1.92646	124
1.92631	118
1.92615	108
1.926	124
1.92584	132
1.92569	100
1.92553	116
1.92538	110
1.92522	120
1.92507	124.039
1.92491	108.028
1.92476	139.387
1.9246	116.176
1.92445	129.92
1.92429	105.485
1.92414	120.276
1.92398	119.923
1.92383	130.96
1.92367	123.067
1.92352	113.077
1.92337	112.908
1.92321	112.917
1.92306	117.112
1.9229	117.006
1.92275	117.946
1.92259	114.09
1.92244	117.314
1.92228	121.065
1.92213	117.463
1.92198	110.771
1.92182	115.667
1.92167	127.531
1.92151	125.209
1.92136	126.152
1.92121	113.803
1.92105	118.532
1.9209	117.618
1.92074	123.766
1.92059	125.126
1.92043	129.453
1.92028	117.772
1.92013	110
1.91997	126.464
1.91982	123.755
1.91966	117.49
1.91951	117.616
1.91936	111.313
1.9192	109.804
1.91905	122.622
1.9189	113.44
1.91874	116.246
1.91859	110.16
1.91843	113.674
1.91828	120.995
1.91813	115.975
1.91797	115.429
1.91782	122.732
1.91767	124.572
1.91751	109.365
1.91736	117.049
1.91721	120.203
1.91705	118.404
1.9169	124.943
1.91675	117.013
1.91659	117.236
1.91644	116.082
1.91629	121.705
1.91613	122.402
1.91598	122.948
1.91583	121.332
1.91567	117.44
1.91552	109.702
1.91537	115.302
1.91521	116.101
1.91506	119.808
1.91491	123.475
1.91475	118.636
1.9146	114.769
1.91445	121.182
1.9143	123.905
1.91414	127.623
1.91399	121.923
1.91384	115.54
1.91368	120.101
1.91353	121.039
1.91338	124.491
1.91323	124.674
1.91307	115.128
1.91292	113.092
1.91277	114.843
1.91261	118.823
1.91246	118.947
1.91231	122.551
1.91216	123.298
1.912	125.353
1.91185	126.975
1.9117	123.408
1.91155	121.445
1.91139	122.245
1.91124	116.237
1.91109	110.967
1.91094	122.67
1.91078	116.344
1.91063	113.51
1.91048	118.47
1.91033	115.197
1.91017	113.379
1.91002	115.799
1.90987	121.92
1.90972	104.793
1.90957	109.151
1.90946	124
1.90931	110
1.90916	102
1.909	132
1.90885	132
1.9087	124
1.90855	124
1.90839	122
1.90824	120
1.90809	124
1.90793	106
1.90778	136
1.90763	122
1.90748	138
1.90732	114
1.90717	120
1.90702	112
1.90687	128
1.90671	110
1.90656	118
1.90641	126
1.90626	112
1.90611	120
1.90595	132
1.9058	114
1.90565	116
1.9055	114
1.90534	128
1.90519	132
1.90504	118
1.90489	116
1.90474	114
1.90458	120
1.90443	126
1.90428	124
1.90413	118
1.90398	110
1.90382	106
1.90367	112
1.90352	114
1.90337	120
1.90322	124
1.90306	116
1.90291	120
1.90276	114
1.90261	126
1.90246	134
1.90231	122
1.90215	118
1.902	126
1.90185	122
1.9017	116
1.90155	116
1.9014	116
1.90124	124
1.90109	118
1.90094	112
1.90079	118
1.90064	118
1.90049	128
1.90034	122
1.90018	96
1.90003	114
1.89988	126
1.89973	112
1.89958	124
1.89943	138
1.89928	128
1.89913	118
1.89898	118
1.89882	122
1.89867	118
1.89852	122
1.89837	124
1.89822	124
1.89807	116
1.89792	118
1.89777	122
1.89762	120
1.89747	106
1.89731	116
1.89716	114
1.89701	124
1.89686	112
1.89671	126
1.89656	120
1.89641	120
1.89626	108
1.89611	116
1.89596	122
1.89581	122
1.89566	124
1.89551	100
1.89536	114
1.89521	122
1.89506	116
1.8949	112
1.89475	124
1.8946	122
1.89445	122
1.8943	110
1.89415	132
1.894	120
1.89385	120
1.8937	110
1.89355	120
1.8934	122
1.89325	124
1.8931	112
1.89295	126
1.8928	110
1.89265	120
1.8925	124
1.89235	124
1.8922	110
1.89205	118
1.8919	114
1.89175	134
1.8916	118
1.89145	116
1.8913	112
1.89115	110
1.891	126
1.89085	112
1.8907	118
1.89055	114
1.8904	110
1.89025	114
1.8901	118
1.88995	116
1.88981	104
1.88966	112
1.88951	112
1.88936	124
1.88921	124
1.88906	104
1.88891	122
1.88876	122
1.88861	122
1.88846	122
1.88831	132
1.88816	124
1.88801	132
1.88786	108
1.88771	124
1.88756	116
1.88742	112
1.88727	124
1.88712	126
1.88697	126
1.88682	112
1.88667	116
1.88652	126
1.88637	112
1.88622	118
1.88607	128
1.88592	130
1.88578	128
1.88563	122
1.88548	108
1.88533	130
1.88518	108
1.88503	110
1.88488	122
1.88473	112
1.88459	118
1.88444	118
1.88429	122
1.88414	116
1.88399	118
1.88384	132
1.88369	120
1.88355	120
1.8834	110
1.88325	120
1.8831	120
1.88295	120
1.8828	112
1.88265	126
1.88251	118
1.88236	136
1.88221	114
1.88206	112
1.88191	116
1.88177	118
1.88162	120
1.88147	116
1.88132	124
1.88117	120
1.88102	104
1.88088	118
1.88073	114
1.88058	122
1.88043	106
1.88028	120
1.88014	116
1.87999	126
1.87984	112
1.87969	130
1.87954	120
1.8794	110
1.87925	124
1.8791	126
1.87895	110
1.87881	112
1.87866	118
1.87851	130
1.87836	128
1.87821	134
1.87807	114
1.87792	124
1.87777	116
1.87762	112
1.87748	124
1.87733	122
1.87718	108
1.87703	132
1.87689	126
1.87674	110
1.87659	140
1.87645	96
1.8763	122
1.87615	132
1.876	106
1.87586	116
1.87571	122
1.87556	120
1.87541	118
1.87527	116
1.87512	120
1.87497	120
1.87483	118
1.87468	106
1.87453	122
1.87438	114
1.87424	132
1.87409	134
1.87394	122
1.8738	116
1.87365	112
1.8735	112
1.87336	116
1.87321	120
1.87306	120
1.87292	112
1.87277	124
1.87262	130
1.87248	114
1.87233	118
1.87218	104
1.87204	118
1.87189	126
1.87174	112
1.8716	118
1.87145	114
1.8713	112
1.87116	124
1.87101	118
1.87086	126
1.87072	112
1.87057	124
1.87042	122
1.87028	122
1.87013	120
1.86999	112
1.86984	118
1.86969	120
1.86955	128
1.8694	128
1.86926	110
1.86911	118
1.86896	114
1.86882	122
1.86867	120
1.86852	114
1.86838	126
1.86823	104
1.86809	114
1.86794	132
1.8678	122
1.86765	124
1.8675	118
1.86736	112
1.86721	114
1.86707	112
1.86692	124
1.86677	120
1.86663	120
1.86648	124
1.86634	120
1.86619	104
1.86605	112
1.8659	108
1.86575	116
1.86561	120
1.86546	104
1.86532	126
1.86517	118
1.86503	122
1.86488	112
1.86474	122
1.86459	122
1.86445	122
1.8643	122
1.86416	126
1.86401	114
1.86386	124
1.86372	116
1.86357	126
1.86343	116
1.86328	110
1.86314	118
1.86299	120
1.86285	126
1.8627	118
1.86256	112
1.86241	112
1.86227	108
1.86212	122
1.86198	124
1.86183	116
1.86169	112
1.86154	120
1.8614	120
1.86125	112
1.86111	102
1.86096	128
1.86082	110
1.86068	132
1.86053	106
1.86039	126
1.86024	120
1.8601	116
1.85995	118
1.85981	130
1.85966	112
1.85952	126
1.85937	108
1.85923	124
1.85908	120
1.85894	110
1.8588	112
1.85865	124
1.85851	106
1.85836	114
1.85822	112
1.85807	108
1.85793	124
1.85779	116
1.85764	112
1.8575	128
1.85735	116
1.85721	114
1.85706	118
1.85692	120
1.85678	118
1.85663	114
1.85649	120
1.85634	122
1.8562	120
1.85606	112
1.85591	118
1.85577	120
1.85562	128
1.85548	110
1.85534	124
1.85519	120
1.85505	114
1.85491	102
1.85476	126
1.85462	122
1.85447	106
1.85433	106
1.85419	130
1.85404	108
1.8539	102
1.85376	138
1.85361	122
1.85347	122
1.85333	114
1.85318	130
1.85304	96
1.8529	120
1.85275	114
1.85261	114
1.85247	122
1.85232	112
1.85218	128
1.85204	116
1.85189	122
1.85175	114
1.85161	106
1.85146	126
1.85132	120
1.85118	110
1.85103	98
1.85089	116
1.85075	110
1.8506	112
1.85046	108
1.85032	122
1.85017	124
1.85003	122
1.84989	118
1.84975	110
1.8496	122
1.84946	110
1.84932	114
1.84917	120
1.84903	118
1.84889	108
1.84875	118
1.8486	120
1.84846	120
1.84832	114
1.84818	110
1.84803	118
1.84789	114
1.84775	118
1.8476	110
1.84746	128
1.84732	118
1.84718	112
1.84703	122
1.84689	128
1.84675	124
1.84661	114
1.84646	110
1.84632	122
1.84618	116
1.84604	124
1.8459	114
1.84575	134
1.84561	102
1.84547	124
1.84533	116
1.84518	110
1.84504	124
1.8449	128
1.84476	106
1.84462	116
1.84447	110
1.84433	116
1.84419	116
1.84405	122
1.84391	124
1.84376	120
1.84362	116
1.84348	116
1.84334	120
1.8432	104
1.84305	116
1.84291	116
1.84277	110
1.84263	114
1.84249	124
1.84235	108
1.8422	130
1.84206	118
1.84192	110
1.84178	118
1.84164	112
1.8415	120
1.84135	120
1.84121	118
1.84107	104
1.84093	122
1.84079	124
1.84065	118
1.84051	130
1.84036	112
1.84022	118
1.84008	100
1.83994	116
1.8398	118
1.83966	122
1.83952	116
1.83938	112
1.83923	116
1.83909	126
1.83895	118
1.83881	110
1.83867	116
1.83853	120
1.83839	128
1.83825	116
1.83811	126
1.83796	114
1.83782	112
1.83768	118
1.83754	116
1.8374	112
1.83726	106
1.83712	108
1.83698	130
1.83684	114
1.8367	110
1.83656	110
1.83642	112
1.83627	126
1.83613	130
1.83599	106
1.83585	124
1.83571	112
1.83557	128
1.83543	94
1.83529	118
1.83515	102
1.83501	112
1.83487	122
1.83473	132
1.83459	126
1.83445	118
1.83431	108
1.83417	114
1.83403	114
1.83389	114
1.83375	122
1.83361	108
1.83347	102
1.83333	120
1.83318	106
1.83304	116
1.8329	98
1.83276	114
1.83262	122
1.83248	114
1.83234	114
1.8322	122
1.83206	110
1.83192	112
1.83178	120
1.83164	126
1.8315	120
1.83136	128
1.83122	100
1.83108	132
1.83094	108
1.8308	100
1.83066	120
1.83053	108
1.83039	110
1.83025	114
1.83011	114
1.82997	108
1.82983	114
1.82969	134
1.82955	116
1.82941	108
1.82927	102
1.82913	108
1.82899	114
1.82885	114
1.82871	116
1.82857	104
1.82843	110
1.82829	122
1.82815	116
1.82801	114
1.82787	120
1.82773	120
1.8276	108
1.82746	110
1.82732	118
1.82718	112
1.82704	106
1.8269	108
1.82676	116
1.82662	108
1.82648	98
1.82634	110
1.8262	120
1.82606	124
1.82593	112
1.82579	112
1.82565	116
1.82551	118
1.82537	114
1.82523	114
1.82509	116
1.82495	116
1.82481	104
1.82468	114
1.82454	106
1.8244	102
1.82426	98
1.82412	116
1.82398	118
1.82384	116
1.8237	116
1.82357	118
1.82343	104
1.82329	116
1.82315	118
1.82301	110
1.82287	114
1.82273	102
1.8226	110
1.82246	118
1.82232	112
1.82218	116
1.82204	110
1.8219	110
1.82177	124
1.82163	114
1.82149	114
1.82135	110
1.82121	118
1.82107	112
1.82094	120
1.8208	108
1.82066	108
1.82052	124
1.82038	104
1.82025	104
1.82011	112
1.81997	110
1.81983	114
1.81969	124
1.81956	114
1.81942	117
1.81928	120
1.81914	106
1.819	102
1.81887	112
1.81873	102
1.81859	112
1.81845	112
1.81831	112
1.81818	122
1.81804	114
1.8179	112
1.81776	102
1.81763	102
1.81749	114
1.81735	112
1.81721	126
1.81708	116
1.81694	112
1.8168	110
1.81666	124
1.81653	112
1.81639	112
1.81625	124
1.81611	114
1.81598	112
1.81584	106
1.8157	116
1.81556	110
1.81543	124
1.81529	106
1.81515	116
1.81501	108
1.81488	122
1.81474	112
1.8146	108
1.81447	114
1.81433	114
1.81419	112
1.81405	100
1.81392	104
1.81378	102
1.81364	104
1.81351	116
1.81337	104
1.81323	94
1.8131	108
1.81296	106
1.81282	116
1.81268	116
1.81255	118
1.81241	106
1.81227	116
1.81214	110
1.812	106
1.81186	116
1.81173	110
1.81159	120
1.81145	116
1.81132	110
1.81118	110
1.81104	112
1.81091	112
1.81077	90
1.81063	100
1.8105	122
1.81036	110
1.81022	110
1.81009	116
1.80995	108
1.80982	112
1.80968	104
1.80954	110
1.80941	98
1.80927	106
1.80913	110
1.809	110
1.80886	108
1.80872	116
1.80859	110
1.80845	102
1.80832	112
1.80818	120
1.80804	106
1.80791	104
1.80777	120
1.80764	106
1.8075	124
1.80736	112
1.80723	106
1.80709	100
1.80696	104
1.80682	116
1.80668	120
1.80655	112
1.80641	96
1.80628	108
1.80614	108
1.80601	112
1.80587	108
1.80573	108
1.8056	106
1.80546	98
1.80533	122
1.80519	104
1.80506	120
1.80492	100
1.80478	106
1.80465	96
1.80451	110
1.80438	100
1.80424	108
1.80411	112
1.80397	104
1.80384	108
1.8037	112
1.80356	108
1.80343	118
1.80329	110
1.80316	104
1.80302	108
1.80289	100
1.80275	110
1.80262	104
1.80248	98
1.80235	114
1.80221	106
1.80208	104
1.80194	114
1.80181	118
1.80167	106
1.80154	116
1.8014	100
1.80127	100
1.80113	110
1.801	108
1.80086	112
1.80073	106
1.80059	102
1.80046	108
1.80032	102
1.80019	108
1.80005	104
1.79992	102
1.79978	104
1.79965	98
1.79951	118
1.79938	110
1.79924	112
1.79911	100
1.79897	112
1.79884	98
1.7987	108
1.79857	114
1.79844	102
1.7983	102
1.79817	108
1.79803	98
1.7979	106
1.79776	104
1.79763	108
1.79749	104
1.79736	98
1.79723	110
1.79709	110
1.79696	110
1.79682	112
1.79669	104
1.79655	108
1.79642	110
1.79629	102
1.79615	108
1.79602	104
1.79588	114
1.79575	114
1.79561	116
1.79548	108
1.79535	114
1.79521	102
1.79508	100
1.79494	92
1.79481	88
1.79468	100
1.79454	112
1.79441	94
1.79428	106
1.79414	92
1.79401	102
1.79387	102
1.79374	106
1.79361	108
1.79347	108
1.79334	110
1.7932	106
1.79307	120
1.79294	116
1.7928	108
1.79267	106
1.79254	112
1.7924	102
1.79227	110
1.79214	107.941
1.792	111.803
1.79187	103.934
1.79174	102.222
1.7916	108.006
1.79147	99.9097
1.79133	98.0682
1.7912	111.172
1.79107	96.5417
1.79093	96.8605
1.7908	107.541
1.79067	111.285
1.79053	95.4189
1.7904	96.4228
1.79027	108.179
1.79013	103.986
1.79	100.726
1.78987	106.511
1.78974	105.186
1.7896	107.782
1.78947	89.7937
1.78934	100.418
1.7892	102.676
1.78907	102.35
1.78894	105.954
1.7888	109.856
1.78867	98.7186
1.78854	107.591
1.7884	105.733
1.78827	96.6694
1.78814	105.196
1.78801	97.4855
1.78787	99.451
1.78774	106.051
1.78761	106.652
1.78747	92.1691
1.78734	105.618
1.78721	107.884
1.78708	96.9356
1.78694	100.848
1.78681	101.245
1.78668	101.78
1.78655	107.034
1.78641	103.535
1.78628	108.903
1.78615	109.24
1.78602	97.9384
1.78588	106.812
1.78575	99.7916
1.78562	97.4497
1.78549	109.187
1.78535	106.102
1.78522	108.25
1.78509	98.6532
1.78496	103.069
1.78482	104.101
1.78469	99.953
1.78456	106.873
1.78443	102.498
1.78429	100.572
1.78416	105.627
1.78403	99.5877
1.7839	108.535
1.78376	108.621
1.78363	102.517
1.7835	105.137
1.78337	103.378
1.78324	107.569
1.7831	105.588
1.78297	108.241
1.78284	111.68
1.78271	101.434
1.78258	88.179
1.78244	93.0035
1.78231	97.4608
1.78218	101.197
1.78205	97.6908
1.78192	99.634
1.78178	98.5122
1.78165	108.028
1.78152	102.843
1.78139	102.428
1.78126	101.578
1.78112	102.411
1.78099	101.566
1.78086	97.2455
1.78073	100.96
1.7806	95.0976
1.78047	99.2094
1.78033	105.934
1.7802	109.098
1.78007	107.201
1.77994	103.155
1.77981	105.358
1.77968	100.597
1.77955	99.7859
1.77941	97.489
1.77928	110.213
1.77915	102.313
1.77902	96.6392
1.77889	97.5725
1.77876	97.3821
1.77865	104
1.77851	114
1.77838	102
1.77825	96
1.77812	104
1.77799	96
1.77785	104
1.77772	106
1.77759	106
1.77746	90
1.77733	90
1.7772	112
1.77706	104
1.77693	86
1.7768	98
1.77667	106
1.77654	90
1.7764	98
1.77627	102
1.77614	112
1.77601	84
1.77588	88
1.77575	100
1.77561	98
1.77548	94
1.77535	104
1.77522	106
1.77509	102
1.77496	102
1.77483	112
1.77469	98
1.77456	100
1.77443	108
1.7743	92
1.77417	94
1.77404	98
1.77391	98
1.77377	102
1.77364	110
1.77351	94
1.77338	100
1.77325	104
1.77312	108
1.77299	110
1.77286	102
1.77273	98
1.77259	104
1.77246	96
1.77233	108
1.7722	98
1.77207	94
1.77194	98
1.77181	100
1.77168	88
1.77155	104
1.77142	96
1.77128	90
1.77115	100
1.77102	112
1.77089	96
1.77076	98
1.77063	102
1.7705	98
1.77037	100
1.77024	100
1.77011	108
1.76998	94
1.76985	96
1.76972	100
1.76958	102
1.76945	98
1.76932	92
1.76919	94
1.76906	94
1.76893	82
1.7688	102
1.76867	88
1.76854	98
1.76841	98
1.76828	96
1.76815	98
1.76802	94
1.76789	106
1.76776	90
1.76763	96
1.7675	96
1.76737	104
1.76724	96
1.76711	100
1.76698	98
1.76685	104
1.76672	102
1.76659	92
1.76646	96
1.76633	96
1.7662	108
1.76607	100
1.76594	108
1.76581	96
1.76568	96
1.76555	98
1.76542	102
1.76529	110
1.76516	92
1.76503	98
1.7649	98
1.76477	96
1.76464	98
1.76451	88
1.76438	106
1.76425	92
1.76412	108
1.76399	94
1.76386	96
1.76373	100
1.7636	100
1.76347	98
1.76334	98
1.76321	104
1.76308	98
1.76295	104
1.76282	104
1.76269	102
1.76256	90
1.76243	96
1.7623	96
1.76217	102
1.76204	104
1.76191	108
1.76178	90
1.76165	88
1.76153	92
1.7614	94
1.76127	90
1.76114	92
1.76101	96
1.76088	106
1.76075	88
1.76062	100
1.76049	98
1.76036	90
1.76023	98
1.7601	106
1.75997	94
1.75985	92
1.75972	98
1.75959	92
1.75946	106
1.75933	96
1.7592	90
1.75907	92
1.75894	86
1.75881	92
1.75868	94
1.75856	94
1.75843	106
1.7583	102
1.75817	80
1.75804	88
1.75791	104
1.75778	102
1.75765	90
1.75753	96
1.7574	92
1.75727	100
1.75714	94
1.75701	106
1.75688	94
1.75675	96
1.75662	92
1.7565	98
1.75637	96
1.75624	90
1.75611	94
1.75598	104
1.75585	92
1.75572	92
1.7556	96
1.75547	100
1.75534	100
1.75521	112
1.75508	90
1.75495	92
1.75483	96
1.7547	94
1.75457	100
1.75444	90
1.75431	90
1.75418	90
1.75406	92
1.75393	88
1.7538	106
1.75367	88
1.75354	88
1.75342	84
1.75329	96
1.75316	94
1.75303	82
1.7529	108
1.75278	100
1.75265	86
1.75252	96
1.75239	84
1.75226	100
1.75214	86
1.75201	86
1.75188	92
1.75175	90
1.75162	104
1.7515	94
1.75137	82
1.75124	98
1.75111	84
1.75099	92
1.75086	98
1.75073	98
1.7506	98
1.75048	96
1.75035	92
1.75022	102
1.75009	104
1.74996	96
1.74984	88
1.74971	92
1.74958	94
1.74945	100
1.74933	94
1.7492	80
1.74907	94
1.74894	106
1.74882	104
1.74869	96
1.74856	104
1.74844	90
1.74831	90
1.74818	94
1.74805	84
1.74793	100
1.7478	88
1.74767	98
1.74755	84
1.74742	98
1.74729	82
1.74716	94
1.74704	94
1.74691	90
1.74678	92
1.74666	92
1.74653	86
1.7464	92
1.74627	94
1.74615	98
1.74602	96
1.74589	98
1.74577	92
1.74564	78
1.74551	94
1.74539	88
1.74526	92
1.74513	102
1.74501	94
1.74488	94
1.74475	90
1.74463	94
1.7445	94
1.74437	86
1.74425	104
1.74412	84
1.74399	92
1.74387	102
1.74374	80
1.74361	90
1.74349	98
1.74336	94
1.74323	96
1.74311	100
1.74298	98
1.74285	92
1.74273	94
1.7426	108
1.74247	90
1.74235	92
1.74222	88
1.74209	86
1.74197	80
1.74184	94
1.74172	92
1.74159	94
1.74146	88
1.74134	88
1.74121	94
1.74108	88
1.74096	94
1.74083	78
1.74071	84
1.74058	88
1.74045	88
1.74033	98
1.7402	88
1.74008	90
1.73995	86
1.73982	88
1.7397	100
1.73957	94
1.73945	82
1.73932	94
1.73919	92
1.73907	92
1.73894	80
1.73882	92
1.73869	88
1.73857	94
1.73844	94
1.73831	90
1.73819	106
1.73806	84
1.73794	88
1.73781	80
1.73769	96
1.73756	92
1.73743	82
1.73731	88
1.73718	92
1.73706	94
1.73693	86
1.73681	84
1.73668	92
1.73656	86
1.73643	88
1.7363	86
1.73618	92
1.73605	84
1.73593	84
1.7358	84
1.73568	82
1.73555	74
1.73543	90
1.7353	96
1.73518	92
1.73505	88
1.73493	84
1.7348	90
1.73468	96
1.73455	86
1.73443	84
1.7343	92
1.73418	94
1.73405	94
1.73392	86
1.7338	94
1.73367	94
1.73355	78
1.73342	88
1.7333	88
1.73317	86
1.73305	82
1.73293	82
1.7328	78
1.73268	90
1.73255	80
1.73243	88
1.7323	82
1.73218	88
1.73205	80
1.73193	86
1.7318	96
1.73168	84
1.73155	86
1.73143	72
1.7313	96
1.73118	90
1.73105	84
1.73093	92
1.7308	86
1.73068	84
1.73056	86
1.73043	98
1.73031	92
1.73018	90
1.73006	100
1.72993	86
1.72981	90
1.72968	82
1.72956	88
1.72944	86
1.72931	90
1.72919	82
1.72906	90
1.72894	80
1.72881	84
1.72869	82
1.72857	88
1.72844	76
1.72832	84
1.72819	78
1.72807	88
1.72794	102
1.72782	96
1.7277	90
1.72757	90
1.72745	92
1.72732	94
1.7272	74
1.72708	72
1.72695	100
1.72683	78
1.7267	84
1.72658	86
1.72646	88
1.72633	90
1.72621	82
1.72608	82
1.72596	90
1.72584	76
1.72571	82
1.72559	92
1.72547	86
1.72534	80
1.72522	82
1.72509	92
1.72497	88
1.72485	80
1.72472	78
1.7246	74
1.72448	82
1.72435	78
1.72423	84
1.72411	90
1.72398	84
1.72386	90
1.72373	82
1.72361	84
1.72349	74
1.72336	80
1.72324	76
1.72312	86
1.72299	92
1.72287	84
1.72275	82
1.72262	90
1.7225	88
1.72238	86
1.72225	84
1.72213	74
1.72201	80
1.72188	80
1.72176	80
1.72164	86
1.72152	80
1.72139	86
1.72127	78
1.72115	98
1.72102	90
1.7209	94
1.72078	84
1.72065	80
1.72053	78
1.72041	94
1.72028	88
1.72016	74
1.72004	76
1.71992	82
1.71979	82
1.71967	86
1.71955	86
1.71942	90
1.7193	86
1.71918	74
1.71906	78
1.71893	84
1.71881	94
1.71869	82
1.71857	78
1.71844	92
1.71832	80
1.7182	78
1.71807	78
1.71795	70
1.71783	76
1.71771	86
1.71758	82
1.71746	78
1.71734	88
1.71722	82
1.71709	82
1.71697	96
1.71685	76
1.71673	72
1.7166	76
1.71648	88
1.71636	76
1.71624	80
1.71612	94
1.71599	90
1.71587	74
1.71575	74
1.71563	94
1.7155	84
1.71538	82
1.71526	82
1.71514	72
1.71502	84
1.71489	82
1.71477	86
1.71465	92
1.71453	84
1.7144	86
1.71428	80
1.71416	76
1.71404	84
1.71392	90
1.71379	84
1.71367	78
1.71355	88
1.71343	74
1.71331	78
1.71318	74
1.71306	84
1.71294	78
1.71282	78
1.7127	84
1.71258	74
1.71245	86
1.71233	74
1.71221	82
1.71209	86
1.71197	82
1.71185	84
1.71172	82
1.7116	80
1.71148	74
1.71136	86
1.71124	82
1.71112	88
1.71099	84
1.71087	72
1.71075	70
1.71063	74
1.71051	78
1.71039	82
1.71027	80
1.71014	68
1.71002	72
1.7099	74
1.70978	86
1.70966	82
1.70954	86
1.70942	86
1.70929	86
1.70917	78
1.70905	82
1.70893	62
1.70881	72
1.70869	68
1.70857	76
1.70845	68
1.70833	86
1.7082	72
1.70808	82
1.70796	76
1.70784	76
1.70772	74
1.7076	80
1.70748	80
1.70736	80
1.70724	82
1.70712	74
1.70699	76
1.70687	82
1.70675	80
1.70663	90
1.70651	84
1.70639	82
1.70627	78
1.70615	80
1.70603	76
1.70591	78
1.70579	80
1.70567	86
1.70554	86
1.70542	74
1.7053	72
1.70518	86
1.70506	78
1.70494	64
1.70482	82
1.7047	76
1.70458	68
1.70446	78
1.70434	72
1.70422	70
1.7041	72
1.70398	62
1.70386	82
1.70374	70
1.70362	78
1.7035	74
1.70337	82
1.70325	72
1.70313	86
1.70301	84
1.70289	78
1.70277	86
1.70265	72
1.70253	76
1.70241	74
1.70229	76
1.70217	90
1.70205	74
1.70193	76
1.70181	76
1.70169	76
1.70157	80
1.70145	84
1.70133	80
1.70121	72
1.70109	72
1.70097	82
1.70085	84
1.70073	66
1.70061	71
1.70049	76
1.70037	80
1.70025	70
1.70013	76
1.70001	90
1.69989	88
1.69977	74
1.69965	72
1.69953	82
1.69941	66
1.69929	70
1.69917	68
1.69905	74
1.69893	78
1.69881	64
1.69869	76
1.69858	80
1.69846	68
1.69834	70
1.69822	74
1.6981	72
1.69798	70
1.69786	68
1.69774	78
1.69762	76
1.6975	70
1.69738	78
1.69726	78
1.69714	84
1.69702	68
1.6969	70
1.69678	68
1.69666	76
1.69654	74
1.69642	68
1.69631	80
1.69619	74
1.69607	80
1.69595	72
1.69583	82
1.69571	92
1.69559	72
1.69547	74
1.69535	80
1.69523	74
1.69511	70
1.69499	68
1.69488	70
1.69476	76
1.69464	70
1.69452	62
1.6944	76
1.69428	70
1.69416	74
1.69404	54
1.69392	78
1.6938	88
1.69369	68
1.69357	74
1.69345	78
1.69333	78
1.69321	70
1.69309	68
1.69297	72
1.69285	76
1.69273	74
1.69262	72
1.6925	78
1.69238	70
1.69226	62
1.69214	68
1.69202	76
1.6919	62
1.69179	68
1.69167	80
1.69155	80
1.69143	76
1.69131	66
1.69119	70
1.69107	58
1.69096	72
1.69084	56
1.69072	68
1.6906	72
1.69048	62
1.69036	72
1.69025	72
1.69013	78
1.69001	64
1.68989	64
1.68977	70
1.68965	68
1.68954	62
1.68942	78
1.6893	74
1.68918	68
1.68906	64
1.68894	72
1.68883	70
1.68871	64
1.68859	70
1.68847	70
1.68835	70
1.68824	68
1.68812	64
1.688	66
1.68788	88
1.68776	70
1.68765	64
1.68753	68
1.68741	64
1.68729	72
1.68717	64
1.68706	74
1.68694	70
1.68682	64
1.6867	68
1.68658	72
1.68647	64
1.68635	68
1.68623	74
1.68611	70
1.686	64
1.68588	64
1.68576	72
1.68564	70
1.68552	78
1.68541	78
1.68529	70
1.68517	60
1.68505	76
1.68494	66
1.68482	64
1.6847	68
1.68458	72
1.68447	66
1.68435	64
1.68423	72
1.68411	66
1.684	60
1.68388	64
1.68376	78
1.68364	56
1.68353	70
1.68341	56
1.68329	64
1.68318	76
1.68306	56
1.68294	72
1.68282	68
1.68271	66
1.68259	60
1.68247	68
1.68235	76
1.68224	68
1.68212	78
1.682	68
1.68189	66
1.68177	58
1.68165	74
1.68154	66
1.68142	64
1.6813	64
1.68118	66
1.68107	72
1.68095	60
1.68083	78
1.68072	64
1.6806	72
1.68048	74
1.68037	68
1.68025	68
1.68013	62
1.68002	72
1.6799	62
1.67978	64
1.67966	72
1.67955	66
1.67943	64
1.67931	64
1.6792	68
1.67908	70
1.67896	54
1.67885	72
1.67873	78
1.67861	72
1.6785	64
1.67838	60
1.67826	64
1.67815	62
1.67803	66
1.67792	80
1.6778	62
1.67768	68
1.67757	68
1.67745	62
1.67733	68
1.67722	60
1.6771	66
1.67698	54.0291
1.67687	67.9593
1.67675	56.2846
1.67663	66.0097
1.67652	66.0746
1.6764	71.8769
1.67629	55.0097
1.67617	60.7282
1.67605	63.0726
1.67594	62.2231
1.67582	67.053
1.6757	67.0658
1.67559	60.1973
1.67547	70.4778
1.67536	63.9775
1.67524	73.463
1.67512	67.5906
1.67501	60.6515
1.67489	57.5602
1.67478	66.4442
1.67466	68.8402
1.67454	60.292
1.67443	68.1484
1.67431	64.3972
1.6742	66.3364
1.67408	59.3334
1.67396	68.3061
1.67385	64.5573
1.67373	62.3623
1.67362	60.6291
1.6735	60.7289
1.67339	66.422
1.67327	66.373
1.67315	61.3279
1.67304	68.2785
1.67292	65.0495
1.67281	63.1977
1.67269	63.955
1.67257	69.7611
1.67246	69.285
1.67234	64.3518
1.67223	68.801
1.67211	69.6505
1.672	71.4476
1.67188	64.8818
1.67177	64.6867
1.67165	66.9654
1.67153	64.986
1.67142	58.4753
1.6713	64.0777
1.67119	58.3094
1.67107	64.774
1.67096	63.0583
1.67084	61.7749
1.67073	69.9084
1.67061	69.0032
1.6705	64.5153
1.67038	61.5814
1.67026	62.0484
1.67015	67.4495
1.67003	63.7148
1.66992	59.4771
1.6698	62.3592
1.66969	65.1059
1.66957	63.8859
1.66946	58.4412
1.66934	58.6743
1.66923	61.9936
1.66911	65.5042
1.669	68.6476
1.66888	69.5601
1.66877	66.858
1.66865	60.9205
1.66854	64.7085
1.66842	66.8238
1.66831	63.9959
1.66819	56.5638
1.66808	60.7977
1.66796	66.7206
1.66785	67.0874
1.66773	68.4369
1.66762	69.1412
1.6675	66.2326
1.66739	64.7573
1.66727	66.8872
1.66716	65.1429
1.66704	62.9612
1.66693	63.3258
1.66681	62.8738
1.6667	62.0303
1.66658	63.8602
1.66647	65.2801
1.66635	64.7193
1.66624	65.2837
1.66612	62.6796
1.66601	59.5832
1.66589	60.1935
1.66578	70.6307
1.66566	64.5031
1.66555	60.2315
1.66544	57.7849
1.66532	62.175
1.66521	67.3478
1.66513	70
1.66502	64
1.6649	54
1.66479	68
1.66467	66
1.66455	64
1.66444	68
1.66432	70
1.66421	60
1.66409	60
1.66398	68
1.66386	68
1.66375	68
1.66363	54
1.66352	66
1.6634	64
1.66329	58
1.66317	48
1.66306	60
1.66295	68
1.66283	54
1.66272	58
1.6626	60
1.66249	68
1.66237	60
1.66226	66
1.66214	64
1.66203	62
1.66191	64
1.6618	50
1.66168	56
1.66157	76
1.66145	64
1.66134	56
1.66122	64
1.66111	68
1.661	50
1.66088	64
1.66077	62
1.66065	70
1.66054	64
1.66042	58
1.66031	64
1.66019	70
1.66008	66
1.65996	62
1.65985	60
1.65974	54
1.65962	56
1.65951	60
1.65939	60
1.65928	70
1.65916	52
1.65905	66
1.65894	68
1.65882	58
1.65871	62
1.65859	56
1.65848	66
1.65836	62
1.65825	66
1.65814	58
1.65802	62
1.65791	64
1.65779	50
1.65768	62
1.65757	70
1.65745	66
1.65734	58
1.65722	64
1.65711	66
1.657	64
1.65688	68
1.65677	56
1.65665	62
1.65654	58
1.65643	56
1.65631	74
1.6562	70
1.65608	54
1.65597	62
1.65586	68
1.65574	64
1.65563	62
1.65551	62
1.6554	66
1.65529	66
1.65517	52
1.65506	66
1.65495	64
1.65483	64
1.65472	54
1.65461	60
1.65449	66
1.65438	60
1.65426	52
1.65415	66
1.65404	66
1.65392	56
1.65381	64
1.6537	66
1.65358	62
1.65347	58
1.65336	58
1.65324	64
1.65313	56
1.65302	64
1.6529	58
1.65279	64
1.65268	66
1.65256	58
1.65245	68
1.65234	68
1.65222	60
1.65211	66
1.652	56
1.65188	74
1.65177	66
1.65166	60
1.65154	54
1.65143	62
1.65132	58
1.6512	62
1.65109	62
1.65098	56
1.65086	50
1.65075	68
1.65064	58
1.65053	60
1.65041	64
1.6503	70
1.65019	60
1.65007	62
1.64996	46
1.64985	58
1.64973	62
1.64962	52
1.64951	54
1.6494	64
1.64928	62
1.64917	54
1.64906	60
1.64894	64
1.64883	58
1.64872	60
1.64861	54
1.64849	58
1.64838	56
1.64827	70
1.64816	74
1.64804	54
1.64793	60
1.64782	64
1.64771	50
1.64759	56
1.64748	60
1.64737	60
1.64725	52
1.64714	68
1.64703	64
1.64692	56
1.6468	60
1.64669	62
1.64658	66
1.64647	50
1.64635	64
1.64624	62
1.64613	70
1.64602	64
1.64591	60
1.64579	64
1.64568	62
1.64557	52
1.64546	58
1.64534	62
1.64523	60
1.64512	66
1.64501	52
1.6449	56
1.64478	50
1.64467	54
1.64456	50
1.64445	64
1.64433	62
1.64422	62
1.64411	68
1.644	62
1.64389	62
1.64377	56
1.64366	64
1.64355	66
1.64344	52
1.64333	58
1.64321	60
1.6431	60
1.64299	54
1.64288	60
1.64277	64
1.64265	60
1.64254	54
1.64243	56
1.64232	66
1.64221	64
1.6421	60
1.64198	62
1.64187	60
1.64176	58
1.64165	52
1.64154	68
1.64142	62
1.64131	58
1.6412	58
1.64109	60
1.64098	58
1.64087	58
1.64075	58
1.64064	50
1.64053	60
1.64042	58
1.64031	66
1.6402	60
1.64009	52
1.63997	58
1.63986	56
1.63975	56
1.63964	66
1.63953	60
1.63942	58
1.63931	70
1.63919	54
1.63908	58
1.63897	60
1.63886	58
1.63875	58
1.63864	58
1.63853	56
1.63842	60
1.6383	60
1.63819	60
1.63808	54
1.63797	64
1.63786	54
1.63775	72
1.63764	54
1.63753	56
1.63741	60
1.6373	60
1.63719	54
1.63708	64
1.63697	52
1.63686	58
1.63675	64
1.63664	56
1.63653	56
1.63642	62
1.6363	52
1.63619	64
1.63608	44
1.63597	58
1.63586	56
1.63575	64
1.63564	52
1.63553	62
1.63542	66
1.63531	54
1.6352	54
1.63508	62
1.63497	56
1.63486	58
1.63475	56
1.63464	52
1.63453	52
1.63442	60
1.63431	50
1.6342	60
1.63409	48
1.63398	54
1.63387	64
1.63376	62
1.63365	58
1.63354	64
1.63343	58
1.63331	60
1.6332	60
1.63309	60
1.63298	50
1.63287	50
1.63276	44
1.63265	56
1.63254	52
1.63243	56
1.63232	52
1.63221	54
1.6321	62
1.63199	52
1.63188	74
1.63177	62
1.63166	52
1.63155	56
1.63144	54
1.63133	56
1.63122	62
1.63111	56
1.631	56
1.63089	56
1.63078	42
1.63067	60
1.63056	60
1.63045	64
1.63034	58
1.63023	64
1.63012	54
1.63001	56
1.6299	56
1.62979	58
1.62968	50
1.62957	68
1.62946	48
1.62935	44
1.62924	50
1.62913	56
1.62902	58
1.62891	62
1.6288	56
1.62869	58
1.62858	56
1.62847	60
1.62836	48
1.62825	56
1.62814	46
1.62803	64
1.62792	54
1.62781	54
1.6277	64
1.62759	54
1.62748	50
1.62737	58
1.62726	64
1.62715	48
1.62704	52
1.62693	62
1.62682	44
1.62671	54
1.6266	62
1.62649	46
1.62639	56
1.62628	54
1.62617	66
1.62606	50
1.62595	60
1.62584	60
1.62573	50
1.62562	48
1.62551	54
1.6254	46
1.62529	58
1.62518	58
1.62507	62
1.62496	52
1.62485	66
1.62474	46
1.62464	68
1.62453	52
1.62442	46
1.62431	50
1.6242	54
1.62409	52
1.62398	54
1.62387	56
1.62376	48
1.62365	50
1.62354	58
1.62343	60
1.62333	60
1.62322	50
1.62311	52
1.623	52
1.62289	56
1.62278	50
1.62267	46
1.62256	56
1.62245	48
1.62234	56
1.62224	52
1.62213	60
1.62202	58
1.62191	48
1.6218	52
1.62169	54
1.62158	54
1.62147	50
1.62137	52
1.62126	52
1.62115	48
1.62104	54
1.62093	52
1.62082	54
1.62071	48
1.6206	50
1.6205	58
1.62039	52
1.62028	46
1.62017	60
1.62006	48
1.61995	50
1.61984	46
1.61974	50
1.61963	50
1.61952	46
1.61941	60
1.6193	52
1.61919	46
1.61908	60
1.61898	52
1.61887	50
1.61876	60
1.61865	58
1.61854	50
1.61843	54
1.61833	60
1.61822	56
1.61811	48
1.618	50
1.61789	60
1.61778	46
1.61768	46
1.61757	56
1.61746	54
1.61735	66
1.61724	50
1.61714	56
1.61703	58
1.61692	48
1.61681	64
1.6167	50
1.6166	52
1.61649	52
1.61638	52
1.61627	54
1.61616	62
1.61605	54
1.61595	46
1.61584	44
1.61573	54
1.61562	62
1.61552	52
1.61541	58
1.6153	58
1.61519	48
1.61508	48
1.61498	40
1.61487	46
1.61476	54
1.61465	52
1.61454	54
1.61444	50
1.61433	52
1.61422	48
1.61411	44
1.61401	58
1.6139	52
1.61379	52
1.61368	50
1.61358	66
1.61347	46
1.61336	46
1.61325	56
1.61314	56
1.61304	46
1.61293	42
1.61282	50
1.61271	60
1.61261	52
1.6125	48
1.61239	48
1.61228	52
1.61218	54
1.61207	52
1.61196	50
1.61186	50
1.61175	40
1.61164	44
1.61153	60
1.61143	60
1.61132	50
1.61121	44
1.6111	52
1.611	52
1.61089	50
1.61078	50
1.61067	42
1.61057	58
1.61046	42
1.61035	52
1.61025	54
1.61014	46
1.61003	48
1.60992	48
1.60982	50
1.60971	46
1.6096	56
1.6095	46
1.60939	58
1.60928	48
1.60918	42
1.60907	58
1.60896	48
1.60885	44
1.60875	54
1.60864	62
1.60853	52
1.60843	50
1.60832	52
1.60821	48
1.60811	60
1.608	50
1.60789	54
1.60779	48
1.60768	52
1.60757	40
1.60747	44
1.60736	56
1.60725	44
1.60715	54
1.60704	54
1.60693	50
1.60683	48
1.60672	38
1.60661	48
1.60651	52
1.6064	36
1.60629	46
1.60619	44
1.60608	56
1.60597	58
1.60587	56
1.60576	52
1.60565	48
1.60555	44
1.60544	48
1.60533	52
1.60523	54
1.60512	34
1.60501	48
1.60491	48
1.6048	50
1.6047	44
1.60459	48
1.60448	54
1.60438	52
1.60427	44
1.60416	50
1.60406	54
1.60395	56
1.60385	48
1.60374	50
1.60363	44
1.60353	48
1.60342	48
1.60331	52
1.60321	44
1.6031	50
1.603	48
1.60289	52
1.60278	50
1.60268	50
1.60257	40
1.60247	50
1.60236	44
1.60225	52
1.60215	44
1.60204	48
1.60194	52
1.60183	52
1.60172	50
1.60162	44
1.60151	52
1.60141	52
1.6013	66
1.60119	58
1.60109	48
1.60098	52
1.60088	52
1.60077	46
1.60067	52
1.60056	50
1.60045	48
1.60035	50
1.60024	52
1.60014	54
1.60003	40
1.59993	44
1.59982	42
1.59971	52
1.59961	54
1.5995	44
1.5994	50
1.59929	46
1.59919	46
1.59908	52
1.59897	40
1.59887	52
1.59876	48
1.59866	48
1.59855	44
1.59845	48
1.59834	56
1.59824	42
1.59813	40
1.59803	48
1.59792	42
1.59782	48
1.59771	42
1.5976	46
1.5975	46
1.59739	54
1.59729	54
1.59718	42
1.59708	54
1.59697	51
1.59687	48
1.59676	54
1.59666	44
1.59655	48
1.59645	46
1.59634	46
1.59624	42
1.59613	44
1.59603	52
1.59592	50
1.59582	46
1.59571	42
1.59561	44
1.5955	42
1.5954	50
1.59529	46
1.59519	42
1.59508	52
1.59498	52
1.59487	48
1.59477	42
1.59466	50
1.59456	40
1.59445	46
1.59435	44
1.59424	42
1.59414	48
1.59403	46
1.59393	48
1.59382	40
1.59372	46
1.59361	48
1.59351	50
1.5934	46
1.5933	40
1.59319	50
1.59309	50
1.59298	54
1.59288	42
1.59278	52
1.59267	44
1.59257	48
1.59246	44
1.59236	46
1.59225	46
1.59215	38
1.59204	40
1.59194	50
1.59183	50
1.59173	40
1.59163	42
1.59152	44
1.59142	46
1.59131	44
1.59121	48
1.5911	48
1.591	48
1.59089	42
1.59079	44
1.59069	52
1.59058	54
1.59048	42
1.59037	56
1.59027	50
1.59016	48
1.59006	46
1.58996	42
1.58985	54
1.58975	54
1.58964	48
1.58954	44
1.58943	50
1.58933	56
1.58923	40
1.58912	54
1.58902	50
1.58891	44
1.58881	48
1.58871	36
1.5886	46
1.5885	52
1.58839	44
1.58829	38
1.58819	38
1.58808	48
1.58798	50
1.58787	60
1.58777	44
1.58767	44
1.58756	48
1.58746	42
1.58735	48
1.58725	44
1.58715	38
1.58704	42
1.58694	48
1.58684	46
1.58673	40
1.58663	46
1.58652	44
1.58642	44
1.58632	46
1.58621	46
1.58611	42
1.58601	44
1.5859	32
1.5858	44
1.58569	44
1.58559	40
1.58549	46
1.58538	44
1.58528	50
1.58518	42
1.58507	44
1.58497	44
1.58487	40
1.58476	42
1.58466	46
1.58456	40
1.58445	44
1.58435	42
1.58425	38
1.58414	44
1.58404	48
1.58394	40
1.58383	42
1.58373	48
1.58363	52
1.58352	44
1.58342	44
1.58332	42
1.58321	50
1.58311	36
1.58301	42
1.5829	42
1.5828	48
1.5827	40
1.58259	36
1.58249	46
1.58239	40
1.58228	42
1.58218	44
1.58208	50
1.58197	44
1.58187	42
1.58177	40
1.58166	52
1.58156	44
1.58146	42
1.58136	38
1.58125	50
1.58115	50
1.58105	40
1.58094	42
1.58084	42
1.58074	48
1.58064	40
1.58053	42
1.58043	42
1.58033	40
1.58022	30
1.58012	44
1.58002	50
1.57992	42
1.57981	38
1.57971	46
1.57961	42
1.5795	42
1.5794	44
1.5793	34
1.5792	44
1.57909	42
1.57899	40
1.57889	42
1.57879	36
1.57868	42
1.57858	52
1.57848	38
1.57837	46
1.57827	46
1.57817	34
1.57807	46
1.57796	46
1.57786	48
1.57776	40
1.57766	42
1.57755	46
1.57745	34
1.57735	34
1.57725	44
1.57715	40
1.57704	50
1.57694	44
1.57684	48
1.57674	42
1.57663	36
1.57653	44
1.57643	36
1.57633	40
1.57622	36
1.57612	44
1.57602	37.9872
1.57592	39.9193
1.57582	37.9781
1.57571	38.1262
1.57561	47.7917
1.57551	37.9484
1.57541	36.3238
1.5753	45.9264
1.5752	49.457
1.5751	39.3319
1.575	40.2079
1.5749	41.9472
1.57479	47.1777
1.57469	40.802
1.57459	37.1885
1.57449	46.5297
1.57439	38.1263
1.57428	32.3465
1.57418	38.972
1.57408	39.2277
1.57398	43.9703
1.57388	41.0999
1.57377	39.7822
1.57367	48.8353
1.57357	36.8132
1.57347	40.4851
1.57337	43.5347
1.57326	44.2082
1.57316	43.4158
1.57306	41.9214
1.57296	44.0316
1.57286	45.4792
1.57276	37.6553
1.57265	38
1.57255	44.5842
1.57245	44.5579
1.57235	41.1361
1.57225	35.0869
1.57214	48.4099
1.57204	44.9645
1.57194	37.3201
1.57184	37.5281
1.57174	39.9712
1.57164	45.62
1.57154	39.1188
1.57143	36.901
1.57133	41.2781
1.57123	40.9519
1.57113	33.0839
1.57103	41.9464
1.57093	40.9571
1.57082	34.9632
1.57072	37.8069
1.57062	39.0405
1.57052	37.6832
1.57042	36.703
1.57032	39.0829
1.57022	32.3301
1.57011	43.0343
1.57001	41.2104
1.56991	38.436
1.56981	41.9573
1.56971	42.3161
1.56961	34.596
1.56951	42.1353
1.5694	40.1575
1.5693	44.375
1.5692	32.6683
1.5691	35.1157
1.569	43.6485
1.5689	42.7376
1.5688	43.6634
1.5687	37.438
1.56859	41.6985
1.56849	40.4257
1.56839	38.3453
1.56829	35.9425
1.56819	32.055
1.56809	39.8876
1.56799	35.6321
1.56789	35.3979
1.56779	35.7618
1.56768	35.6337
1.56758	39.8229
1.56748	30.6296
1.56738	38.8845
1.56728	37.1738
1.56718	35.3828
1.56708	40.4423
1.56698	42.9771
1.56688	40.5004
1.56678	33.3492
1.56667	33.7417
1.56657	38.6664
1.56647	34.9723
1.56637	35.6834
1.56627	36.0891
1.56617	34.5937
1.56607	44.4529
1.56597	40.3503
1.56587	33.5733
1.56584	32
1.56574	34
1.56564	32
1.56554	40
1.56544	38
1.56534	44
1.56523	30
1.56513	40
1.56503	36
1.56493	38
1.56483	38
1.56473	42
1.56463	38
1.56453	36
1.56442	40
1.56432	34
1.56422	40
1.56412	38
1.56402	36
1.56392	38
1.56382	34
1.56372	40
1.56362	46
1.56351	40
1.56341	38
1.56331	40
1.56321	36
1.56311	40
1.56301	34
1.56291	38
1.56281	36
1.56271	40
1.56261	40
1.56251	38
1.5624	46
1.5623	40
1.5622	38
1.5621	38
1.562	40
1.5619	32
1.5618	40
1.5617	40
1.5616	34
1.5615	44
1.5614	46
1.5613	38
1.56119	40
1.56109	34
1.56099	38
1.56089	34
1.56079	30
1.56069	44
1.56059	36
1.56049	46
1.56039	38
1.56029	32
1.56019	44
1.56009	40
1.55999	32
1.55989	42
1.55979	36
1.55969	40
1.55959	38
1.55948	42
1.55938	34
1.55928	38
1.55918	36
1.55908	42
1.55898	34
1.55888	30
1.55878	38
1.55868	30
1.55858	36
1.55848	38
1.55838	40
1.55828	26
1.55818	40
1.55808	34
1.55798	38
1.55788	38
1.55778	36
1.55768	36
1.55758	44
1.55748	30
1.55738	28
1.55728	36
1.55718	40
1.55708	42
1.55698	40
1.55688	40
1.55678	38
1.55668	40
1.55658	32
1.55648	44
1.55638	46
1.55628	38
1.55618	36
1.55608	44
1.55598	30
1.55588	40
1.55578	34
1.55568	34
1.55558	40
1.55548	42
1.55538	36
1.55528	40
1.55518	38
1.55508	38
1.55498	42
1.55488	34
1.55478	38
1.55468	40
1.55458	40
1.55448	38
1.55438	46
1.55428	36
1.55418	44
1.55408	42
1.55398	36
1.55388	38
1.55378	38
1.55368	40
1.55358	34
1.55348	36
1.55338	32
1.55328	36
1.55318	44
1.55308	32
1.55298	40
1.55288	38
1.55278	30
1.55269	38
1.55259	30
1.55249	34
1.55239	40
1.55229	38
1.55219	34
1.55209	42
1.55199	36
1.55189	32
1.55179	30
1.55169	36
1.55159	34
1.55149	34
1.55139	34
1.55129	34
1.55119	38
1.55109	32
1.551	40
1.5509	38
1.5508	34
1.5507	34
1.5506	36
1.5505	38
1.5504	38
1.5503	40
1.5502	38
1.5501	44
1.55	44
1.5499	36
1.5498	40
1.54971	36
1.54961	36
1.54951	32
1.54941	38
1.54931	40
1.54921	28
1.54911	38
1.54901	44
1.54891	38
1.54881	38
1.54872	38
1.54862	38
1.54852	36
1.54842	32
1.54832	32
1.54822	38
1.54812	40
1.54802	36
1.54792	36
1.54783	38
1.54773	38
1.54763	32
1.54753	40
1.54743	34
1.54733	38
1.54723	28
1.54713	38
1.54703	48
1.54694	32
1.54684	28
1.54674	30
1.54664	40
1.54654	38
1.54644	36
1.54634	38
1.54625	38
1.54615	42
1.54605	32
1.54595	32
1.54585	38
1.54575	30
1.54565	38
1.54556	36
1.54546	38
1.54536	34
1.54526	38
1.54516	40
1.54506	50
1.54496	40
1.54487	38
1.54477	38
1.54467	40
1.54457	38
1.54447	36
1.54437	38
1.54428	42
1.54418	46
1.54408	38
1.54398	34
1.54388	38
1.54378	36
1.54369	36
1.54359	46
1.54349	32
1.54339	36
1.54329	44
1.54319	38
1.5431	34
1.543	46
1.5429	40
1.5428	38
1.5427	36
1.54261	36
1.54251	38
1.54241	36
1.54231	38
1.54221	34
1.54212	40
1.54202	32
1.54192	34
1.54182	44
1.54172	42
1.54163	38
1.54153	36
1.54143	38
1.54133	44
1.54123	42
1.54114	32
1.54104	30
1.54094	34
1.54084	38
1.54074	40
1.54065	30
1.54055	38
1.54045	36
1.54035	38
1.54025	26
1.54016	42
1.54006	38
1.53996	32
1.53986	30
1.53977	38
1.53967	46
1.53957	32
1.53947	42
1.53937	30
1.53928	30
1.53918	30
1.53908	30
1.53898	36
1.53889	40
1.53879	34
1.53869	42
1.53859	32
1.5385	32
1.5384	40
1.5383	30
1.5382	42
1.53811	32
1.53801	32
1.53791	38
1.53781	34
1.53772	40
1.53762	34
1.53752	34
1.53742	36
1.53733	34
1.53723	36
1.53713	46
1.53703	36
1.53694	30
1.53684	34
1.53674	42
1.53665	38
1.53655	38
1.53645	38
1.53635	44
1.53626	46
1.53616	32
1.53606	34
1.53596	34
1.53587	38
1.53577	42
1.53567	42
1.53558	38
1.53548	32
1.53538	38
1.53528	36
1.53519	38
1.53509	34
1.53499	36
1.5349	38
1.5348	42
1.5347	38
1.5346	44
1.53451	36
1.53441	36
1.53431	36
1.53422	36
1.53412	38
1.53402	40
1.53393	34
1.53383	46
1.53373	42
1.53364	34
1.53354	26
1.53344	34
1.53334	44
1.53325	36
1.53315	40
1.53305	34
1.53296	42
1.53286	34
1.53276	38
1.53267	36
1.53257	40
1.53247	34
1.53238	36
1.53228	36
1.53218	42
1.53209	34
1.53199	38
1.53189	36
1.5318	32
1.5317	36
1.5316	32
1.53151	54
1.53141	42
1.53131	32
1.53122	38
1.53112	40
1.53102	28
1.53093	36
1.53083	46
1.53073	38
1.53064	38
1.53054	44
1.53045	36
1.53035	38
1.53025	26
1.53016	44
1.53006	36
1.52996	38
1.52987	38
1.52977	38
1.52967	40
1.52958	42
1.52948	42
1.52939	34
1.52929	36
1.52919	34
1.5291	32
1.529	34
1.5289	34
1.52881	44
1.52871	38
1.52862	44
1.52852	36
1.52842	38
1.52833	30
1.52823	38
1.52813	32
1.52804	40
1.52794	32
1.52785	44
1.52775	30
1.52765	28
1.52756	36
1.52746	30
1.52737	34
1.52727	38
1.52717	38
1.52708	32
1.52698	36
1.52689	32
1.52679	38
1.52669	38
1.5266	30
1.5265	36
1.52641	46
1.52631	42
1.52621	48
1.52612	42
1.52602	36
1.52593	32
1.52583	38
1.52574	38
1.52564	32
1.52554	36
1.52545	40
1.52535	40
1.52526	34
1.52516	40
1.52507	34
1.52497	36
1.52487	36
1.52478	38
1.52468	34
1.52459	38
1.52449	40
1.5244	36
1.5243	42
1.5242	36
1.52411	32
1.52401	34
1.52392	46
1.52382	48
1.52373	36
1.52363	34
1.52354	36
1.52344	36
1.52334	40
1.52325	38
1.52315	38
1.52306	36
1.52296	32
1.52287	26
1.52277	38
1.52268	28
1.52258	30
1.52249	44
1.52239	36
1.5223	40
1.5222	32
1.5221	40
1.52201	34
1.52191	34
1.52182	42
1.52172	36
1.52163	40
1.52153	38
1.52144	36
1.52134	32
1.52125	32
1.52115	34
1.52106	34
1.52096	36
1.52087	34
1.52077	26
1.52068	30
1.52058	32
1.52049	36
1.52039	30
1.5203	28
1.5202	36
1.52011	30
1.52001	32
1.51992	30
1.51982	32
1.51973	32
1.51963	42
1.51954	44
1.51944	42
1.51935	26
1.51925	36
1.51916	42
1.51906	34
1.51897	38
1.51887	38
1.51878	32
1.51868	32
1.51859	32
1.51849	30
1.5184	40
1.5183	40
1.51821	30
1.51811	32
1.51802	36
1.51792	34
1.51783	24
1.51773	40
1.51764	34
1.51755	36
1.51745	38
1.51736	30
1.51726	36
1.51717	34
1.51707	34
1.51698	34
1.51688	32
1.51679	34
1.51669	34
1.5166	30
1.5165	40
1.51641	36
1.51632	32
1.51622	30
1.51613	34
1.51603	42
1.51594	34
1.51584	42
1.51575	34
1.51565	34
1.51556	42
1.51547	40
1.51537	32
1.51528	26
1.51518	36
1.51509	34
1.51499	36
1.5149	40
1.51481	32
1.51471	38
1.51462	30
1.51452	40
1.51443	42
1.51433	34
1.51424	46
1.51415	36
1.51405	40
1.51396	36
1.51386	38
1.51377	38
1.51367	40
1.51358	40
1.51349	34
1.51339	36
1.5133	38
1.5132	32
1.51311	24
1.51302	30
1.51292	26
1.51283	40
1.51273	36
1.51264	24
1.51255	36
1.51245	32
1.51236	34
1.51226	30
1.51217	36
1.51208	36
1.51198	28
1.51189	40
1.51179	32
1.5117	34
1.51161	34
1.51151	36
1.51142	34
1.51132	30
1.51123	28
1.51114	30
1.51104	44
1.51095	38
1.51086	44
1.51076	38
1.51067	38
1.51057	30
1.51048	32
1.51039	32
1.51029	34
1.5102	34
1.51011	28
1.51001	32
1.50992	32
1.50983	38
1.50973	32
1.50964	32
1.50954	38
1.50945	26
1.50936	28
1.50926	38
1.50917	32
1.50908	36
1.50898	32
1.50889	32
1.5088	28
1.5087	34
1.50861	24
1.50852	30
1.50842	34
1.50833	34
1.50824	40
1.50814	40
1.50805	34
1.50796	28
1.50786	44
1.50777	40
1.50768	36
1.50758	32
1.50749	30
1.5074	38
1.5073	34
1.50721	30
1.50712	30
1.50702	42
1.50693	34
1.50684	36
1.50674	40
1.50665	34
1.50656	38
1.50646	26
1.50637	34
1.50628	42
1.50618	32
1.50609	32
1.506	32
1.5059	32
1.50581	30
1.50572	32
1.50563	36
1.50553	37
1.50544	38
1.50535	36
1.50525	34
1.50516	34
1.50507	32
1.50497	38
1.50488	36
1.50479	28
1.5047	30
1.5046	34
1.50451	30
1.50442	38
1.50432	30
1.50423	28
1.50414	30
1.50405	36
1.50395	28
1.50386	32
1.50377	38
1.50367	42
1.50358	34
1.50349	38
1.5034	30
1.5033	26
1.50321	26
1.50312	32
1.50302	34
1.50293	26
1.50284	36
1.50275	34
1.50265	34
1.50256	36
1.50247	38
1.50238	40
1.50228	36
1.50219	32
1.5021	34
1.50201	36
1.50191	32
1.50182	26
1.50173	34
1.50164	38
1.50154	30
1.50145	24
1.50136	32
1.50127	38
1.50117	34
1.50108	34
1.50099	32
1.5009	32
1.5008	30
1.50071	24
1.50062	42
1.50053	32
1.50043	24
1.50034	30
1.50025	32
1.50016	26
1.50006	34
1.49997	28
1.49988	30
1.49979	36
1.4997	28
1.4996	26
1.49951	32
1.49942	26
1.49933	32
1.49923	30
1.49914	28
1.49905	28
1.49896	32
1.49887	32
1.49877	34
1.49868	32
1.49859	28
1.4985	30
1.49841	36
1.49831	34
1.49822	26
1.49813	30
1.49804	34
1.49795	40
1.49785	26
1.49776	28
1.49767	40
1.49758	34
1.49749	34
1.49739	38
1.4973	40
1.49721	32
1.49712	28
1.49703	40
1.49693	34
1.49684	42
1.49675	42
1.49666	34
1.49657	32
1.49647	34
1.49638	30
1.49629	32
1.4962	32
1.49611	36
1.49602	40
1.49592	38
1.49583	32
1.49574	30
1.49565	32
1.49556	30
1.49547	26
1.49537	38
1.49528	36
1.49519	26
1.4951	30
1.49501	36
1.49492	38
1.49482	32
1.49473	28
1.49464	28
1.49455	32
1.49446	32
1.49437	40
1.49428	34
1.49418	28
1.49409	24
1.494	26
1.49391	26
1.49382	36
1.49373	28
1.49363	32
1.49354	36
1.49345	32
1.49336	30
1.49327	30
1.49318	34
1.49309	24
1.493	36
1.4929	32
1.49281	24
1.49272	32
1.49263	30
1.49254	32
1.49245	34
1.49236	32
1.49226	26
1.49217	30
1.49208	30
1.49199	32
1.4919	32
1.49181	32
1.49172	32
1.49163	32
1.49154	36
1.49144	40
1.49135	30
1.49126	36
1.49117	40
1.49108	34
1.49099	32
1.4909	36
1.49081	36
1.49072	24
1.49062	34
1.49053	34
1.49044	28
1.49035	34
1.49026	36
1.49017	36
1.49008	30
1.48999	28
1.4899	42
1.48981	36
1.48972	30
1.48962	30
1.48953	22
1.48944	26
1.48935	36
1.48926	38
1.48917	36
1.48908	32
1.48899	40
1.4889	32
1.48881	30
1.48872	30
1.48863	30
1.48853	28
1.48844	36
1.48835	32
1.48826	34
1.48817	34
1.48808	32
1.48799	36
1.4879	34
1.48781	32
1.48772	32
1.48763	22
1.48754	30
1.48745	38
1.48736	38
1.48727	26
1.48717	28
1.48708	34
1.48699	33.9901
1.4869	31.9389
1.48681	29.9682
1.48672	33.8614
1.48663	30
1.48654	32.1077
1.48645	33.7906
1.48636	33.4576
1.48627	32.039
1.48618	31.7743
1.48609	29.5842
1.486	33.8047
1.48591	28.5273
1.48582	28.2673
1.48573	30.3517
1.48564	32.1206
1.48555	35.1503
1.48546	38.0609
1.48537	30.716
1.48528	29.9654
1.48519	31.5513
1.4851	31.9379
1.48501	29.7468
1.48492	26.7267
1.48482	30.5397
1.48473	34.2778
1.48464	31.6184
1.48455	32.9835
1.48446	29.2853
1.48437	28.3644
1.48428	33.3159
1.48419	32.1496
1.4841	31.6851
1.48401	33.6663
1.48392	27.0248
1.48383	26.904
1.48374	29.645
1.48365	29.844
1.48356	35.0198
1.48347	33.0887
1.48338	31.7114
1.48329	28.8646
1.4832	28.6337
1.48311	27.0511
1.48302	26.8812
1.48293	26.1142
1.48284	30.9884
1.48275	34.3749
1.48266	32.7363
1.48257	33.9657
1.48248	25.8206
1.48239	29.0198
1.4823	31.3745
1.48221	33.9905
1.48212	30.1717
1.48203	31.3619
1.48194	28.2784
1.48185	29.4259
1.48176	28.3168
1.48167	32.5074
1.48158	29.8552
1.48149	30.7558
1.4814	33.8933
1.48132	35.064
1.48123	29.5967
1.48114	29.4745
1.48105	30.9885
1.48096	33.6773
1.48087	29.3564
1.48078	29.5868
1.48069	28.3853
1.4806	25.8137
1.48051	29.4356
1.48042	30.422
1.48033	26.9011
1.48024	27.0963
1.48015	25.5149
1.48006	30.1138
1.47997	27.9417
1.47988	30.0416
1.47979	29.1913
1.4797	29.627
1.47961	27.6307
1.47952	29.2405
1.47943	35.5287
1.47934	27.8416
1.47925	26.6354
1.47916	28.146
1.47907	31.6646
1.47899	30.2277
1.4789	29.6763
1.47881	29.0048
1.47872	31.5246
1.47863	30.4455
1.47854	30.3297
1.47845	32.8182
1.47836	27.634
1.47827	26.3395
1.47818	29.1857
1.47809	35.4065
1.478	31.7272
1.47792	30
1.47783	30
1.47774	36
1.47765	20
1.47756	32
1.47747	36
1.47738	28
1.47729	24
1.47721	30
1.47712	32
1.47703	24
1.47694	30
1.47685	28
1.47676	38
1.47667	26
1.47658	28
1.47649	32
1.4764	40
1.47631	26
1.47622	28
1.47613	28
1.47604	32
1.47595	30
1.47586	26
1.47577	24
1.47568	36
1.47559	24
1.4755	28
1.47541	32
1.47532	32
1.47523	36
1.47514	36
1.47505	36
1.47497	26
1.47488	30
1.47479	36
1.4747	30
1.47461	36
1.47452	22
1.47443	26
1.47434	32
1.47425	34
1.47416	38
1.47407	24
1.47398	32
1.47389	30
1.4738	28
1.47371	34
1.47363	34
1.47354	30
1.47345	32
1.47336	30
1.47327	34
1.47318	30
1.47309	30
1.473	26
1.47291	26
1.47282	34
1.47273	30
1.47264	30
1.47256	36
1.47247	30
1.47238	28
1.47229	32
1.4722	32
1.47211	24
1.47202	24
1.47193	32
1.47184	28
1.47175	30
1.47166	26
1.47158	32
1.47149	40
1.4714	36
1.47131	32
1.47122	38
1.47113	28
1.47104	32
1.47095	30
1.47086	32
1.47078	30
1.47069	30
1.4706	26
1.47051	32
1.47042	24
1.47033	34
1.47024	30
1.47015	32
1.47006	38
1.46998	38
1.46989	30
1.4698	26
1.46971	32
1.46962	28
1.46953	28
1.46944	28
1.46935	28
1.46927	28
1.46918	26
1.46909	30
1.469	28
1.46891	34
1.46882	36
1.46873	30
1.46865	30
1.46856	26
1.46847	30
1.46838	28
1.46829	26
1.4682	32
1.46811	22
1.46803	32
1.46794	26
1.46785	34
1.46776	32
1.46767	32
1.46758	28
1.46749	26
1.46741	32
1.46732	30
1.46723	28
1.46714	34
1.46705	32
1.46696	32
1.46688	34
1.46679	36
1.4667	32
1.46661	28
1.46652	32
1.46643	30
1.46635	26
1.46626	32
1.46617	36
1.46608	36
1.46599	32
1.4659	20
1.46582	32
1.46573	30
1.46564	36
1.46555	26
1.46546	26
1.46538	26
1.46529	34
1.4652	24
1.46511	24
1.46502	28
1.46493	38
1.46485	34
1.46476	26
1.46467	28
1.46458	26
1.46449	30
1.46441	34
1.46432	28
1.46423	32
1.46414	28
1.46405	36
1.46397	28
1.46388	38
1.46379	24
1.4637	34
1.46361	34
1.46353	24
1.46344	30
1.46335	32
1.46326	30
1.46317	30
1.46309	32
1.463	32
1.46291	30
1.46282	28
1.46274	28
1.46265	34
1.46256	26
1.46247	26
1.46238	40
1.4623	26
1.46221	34
1.46212	28
1.46203	30
1.46195	32
1.46186	30
1.46177	28
1.46168	34
1.46159	24
1.46151	32
1.46142	34
1.46133	30
1.46124	28
1.46116	32
1.46107	28
1.46098	32
1.46089	28
1.46081	24
1.46072	28
1.46063	34
1.46054	28
1.46046	32
1.46037	32
1.46028	28
1.46019	32
1.46011	30
1.46002	22
1.45993	32
1.45984	32
1.45976	32
1.45967	32
1.45958	26
1.45949	32
1.45941	28
1.45932	22
1.45923	32
1.45914	30
1.45906	32
1.45897	26
1.45888	32
1.45879	26
1.45871	30
1.45862	26
1.45853	26
1.45845	30
1.45836	32
1.45827	34
1.45818	22
1.4581	28
1.45801	28
1.45792	36
1.45784	32
1.45775	32
1.45766	30
1.45757	28
1.45749	38
1.4574	28
1.45731	36
1.45723	32
1.45714	26
1.45705	30
1.45696	30
1.45688	30
1.45679	24
1.4567	32
1.45662	34
1.45653	32
1.45644	26
1.45635	34
1.45627	28
1.45618	24
1.45609	40
1.45601	32
1.45592	24
1.45583	32
1.45575	34
1.45566	22
1.45557	36
1.45549	28
1.4554	32
1.45531	28
1.45523	28
1.45514	28
1.45505	36
1.45496	28
1.45488	34
1.45479	30
1.4547	30
1.45462	24
1.45453	24
1.45444	32
1.45436	26
1.45427	34
1.45418	24
1.4541	26
1.45401	40
1.45392	38
1.45384	28
1.45375	34
1.45366	28
1.45358	32
1.45349	24
1.4534	28
1.45332	32
1.45323	30
1.45314	36
1.45306	32
1.45297	34
1.45288	28
1.4528	26
1.45271	26
1.45263	34
1.45254	30
1.45245	34
1.45237	30
1.45228	22
1.45219	40
1.45211	30
1.45202	30
1.45193	26
1.45185	20
1.45176	28
1.45167	26
1.45159	28
1.4515	32
1.45142	34
1.45133	26
1.45124	26
1.45116	30
1.45107	24
1.45098	28
1.4509	32
1.45081	28
1.45073	34
1.45064	36
1.45055	28
1.45047	28
1.45038	34
1.45029	34
1.45021	30
1.45012	30
1.45004	34
1.44995	24
1.44986	24
1.44978	24
1.44969	26
1.4496	28
1.44952	26
1.44943	26
1.44935	32
1.44926	30
1.44917	32
1.44909	34
1.449	28
1.44892	30
1.44883	22
1.44874	36
1.44866	28
1.44857	28
1.44849	26
1.4484	30
1.44831	26
1.44823	24
1.44814	36
1.44806	28
1.44797	40
1.44789	36
1.4478	32
1.44771	34
1.44763	26
1.44754	34
1.44746	28
1.44737	28
1.44728	26
1.4472	26
1.44711	36
1.44703	34
1.44694	28
1.44686	28
1.44677	32
1.44668	40
1.4466	36
1.44651	30
1.44643	26
1.44634	34
1.44626	26
1.44617	32
1.44608	30
1.446	28
1.44591	28
1.44583	26
1.44574	28
1.44566	34
1.44557	24
1.44548	28
1.4454	30
1.44531	30
1.44523	22
1.44514	34
1.44506	28
1.44497	34
1.44489	26
1.4448	32
1.44472	36
1.44463	28
1.44454	26
1.44446	32
1.44437	28
1.44429	24
1.4442	32
1.44412	18
1.44403	30
1.44395	30
1.44386	26
1.44378	30
1.44369	32
1.44361	32
1.44352	22
1.44343	26
1.44335	32
1.44326	26
1.44318	24
1.44309	30
1.44301	34
1.44292	28
1.44284	32
1.44275	30
1.44267	30
1.44258	34
1.4425	26
1.44241	28
1.44233	32
1.44224	32
1.44216	28
1.44207	24
1.44199	26
1.4419	28
1.44182	28
1.44173	30
1.44165	28
1.44156	26
1.44148	28
1.44139	34
1.44131	32
1.44122	28
1.44114	20
1.44105	22
1.44097	34
1.44088	26
1.4408	26
1.44071	30
1.44063	22
1.44054	30
1.44046	28
1.44037	30
1.44029	36
1.4402	24
1.44012	30
1.44003	28
1.43995	24
1.43986	30
1.43978	28
1.43969	26
1.43961	26
1.43952	30
1.43944	32
1.43935	30
1.43927	26
1.43918	32
1.4391	30
1.43901	26
1.43893	30
1.43885	28
1.43876	22
1.43868	24
1.43859	26
1.43851	28
1.43842	36
1.43834	24
1.43825	32
1.43817	30
1.43808	28
1.438	30
1.43791	28
1.43783	24
1.43775	34
1.43766	28
1.43758	26
1.43749	28
1.43741	24
1.43732	26
1.43724	28
1.43715	28
1.43707	22
1.43698	26
1.4369	28
1.43682	28
1.43673	24
1.43665	28
1.43656	28
1.43648	30
1.43639	36
1.43631	26
1.43622	28
1.43614	28
1.43606	32
1.43597	24
1.43589	22
1.4358	28
1.43572	26
1.43563	32
1.43555	32
1.43547	30
1.43538	38
1.4353	34
1.43521	26
1.43513	32
1.43505	24
1.43496	26
1.43488	30
1.43479	34
1.43471	30
1.43462	32
1.43454	38
1.43446	38
1.43437	26
1.43429	28
1.4342	28
1.43412	30
1.43404	24
1.43395	22
1.43387	34
1.43378	38
1.4337	28
1.43362	28
1.43353	30
1.43345	24
1.43336	28
1.43328	28
1.4332	36
1.43311	28
1.43303	34
1.43294	32
1.43286	28
1.43278	30
1.43269	32
1.43261	32
1.43252	26
1.43244	32
1.43236	28
1.43227	32
1.43219	30
1.4321	34
1.43202	34
1.43194	30
1.43185	36
1.43177	32
1.43169	34
1.4316	26
1.43152	24
1.43143	28
1.43135	26
1.43127	30
1.43118	30
1.4311	22
1.43102	34
1.43093	34
1.43085	26
1.43076	26
1.43068	32
1.4306	30
1.43051	30
1.43043	32
1.43035	30
1.43026	24
1.43018	32
1.4301	32
1.43001	24
1.42993	26
1.42985	26
1.42976	24
1.42968	28
1.42959	24
1.42951	22
1.42943	30
1.42934	30
1.42926	24
1.42918	20
1.42909	26
1.42901	28
1.42893	26
1.42884	34
1.42876	30
1.42868	24
1.42859	32
1.42851	28
1.42843	22
1.42834	30
1.42826	30
1.42818	30
1.42809	30
1.42801	36
1.42793	24
1.42784	24
1.42776	34
1.42768	34
1.42759	32
1.42751	26
1.42743	30
1.42734	24
1.42726	32
1.42718	28
1.4271	26
1.42701	32
1.42693	28
1.42685	34
1.42676	32
1.42668	36
1.4266	32
1.42651	40
1.42643	30
1.42635	32
1.42626	28
1.42618	28
1.4261	32
1.42601	24
1.42593	24
1.42585	26
1.42577	32
1.42568	36
1.4256	24
1.42552	22
1.42543	20
1.42535	36
1.42527	32
1.42519	26
1.4251	32
1.42502	30
1.42494	22
1.42485	30
1.42477	28
1.42469	26
1.4246	32
1.42452	26
1.42444	32
1.42436	33
1.42427	34
1.42419	32
1.42411	30
1.42403	26
1.42394	30
1.42386	26
1.42378	34
1.42369	28
1.42361	22
1.42353	24
1.42345	34
1.42336	24
1.42328	32
1.4232	30
1.42312	30
1.42303	28
1.42295	24
1.42287	32
1.42278	38
1.4227	30
1.42262	36
1.42254	30
1.42245	24
1.42237	32
1.42229	20
1.42221	36
1.42212	30
1.42204	32
1.42196	26
1.42188	28
1.42179	26
1.42171	24
1.42163	22
1.42155	32
1.42146	28
1.42138	28
1.4213	28
1.42122	36
1.42113	34
1.42105	26
1.42097	34
1.42089	26
1.42081	30
1.42072	30
1.42064	26
1.42056	30
1.42048	36
1.42039	24
1.42031	32
1.42023	34
1.42015	30
1.42006	22
1.41998	22
1.4199	34
1.41982	32
1.41974	20
1.41965	28
1.41957	28
1.41949	30
1.41941	20
1.41932	32
1.41924	30
1.41916	32
1.41908	24
1.419	28
1.41891	32
1.41883	24
1.41875	26
1.41867	32
1.41859	32
1.4185	26
1.41842	24
1.41834	38
1.41826	30
1.41818	36
1.41809	28
1.41801	34
1.41793	26
1.41785	28
1.41777	24
1.41768	34
1.4176	22
1.41752	28
1.41744	32
1.41736	34
1.41727	28
1.41719	32
1.41711	26
1.41703	38
1.41695	38
1.41686	26
1.41678	24
1.4167	26
1.41662	32
1.41654	24
1.41646	26
1.41637	32
1.41629	32
1.41621	24
1.41613	24
1.41605	32
1.41596	28
1.41588	26
1.4158	40
1.41572	28
1.41564	30
1.41556	28
1.41547	24
1.41539	34
1.41531	26
1.41523	26
1.41515	30
1.41507	36
1.41498	24
1.4149	30
1.41482	32
1.41474	24
1.41466	24
1.41458	30
1.4145	30
1.41441	32
1.41433	26
1.41425	34
1.41417	26
1.41409	26
1.41401	26
1.41392	34
1.41384	30
1.41376	34
1.41368	26
1.4136	30
1.41352	26
1.41344	30
1.41335	24
1.41327	26
1.41319	40
1.41311	26
1.41303	26
1.41295	34
1.41287	32
1.41279	26
1.4127	22
1.41262	22
1.41254	30
1.41246	26
1.41238	26
1.4123	36
1.41222	28
1.41213	26
1.41205	26
1.41197	36
1.41189	28
1.41181	26
1.41173	26
1.41165	24
1.41157	30
1.41149	22
1.4114	28
1.41132	34
1.41124	28
1.41116	30
1.41108	30
1.411	32
1.41092	26
1.41084	26
1.41076	34
1.41067	30
1.41059	26
1.41051	30
1.41043	30
1.41035	36
1.41027	26
1.41019	32
1.41011	32
1.41003	34
1.40995	32
1.40986	24
1.40978	28
1.4097	26
1.40962	26
1.40954	26
1.40946	26
1.40938	38
1.4093	24
1.40922	32
1.40914	28
1.40906	26
1.40897	36
1.40889	18
1.40881	26
1.40873	32
1.40865	26
1.40857	24
1.40849	24
1.40841	26
1.40833	22
1.40825	22
1.40817	40
1.40809	38
1.40801	24
1.40792	26
1.40784	27.9884
1.40776	22.0073
1.40768	31.9085
1.4076	24.2676
1.40752	29.9222
1.40744	28.1927
1.40736	24
1.40728	33.2642
1.4072	27.8042
1.40712	21.6565
1.40704	24.4338
1.40696	32.2069
1.40688	29.5008
1.4068	25.7295
1.40672	22.0017
1.40663	29.0792
1.40655	26.6476
1.40647	19.7373
1.40639	27.2806
1.40631	26.3676
1.40623	26.0122
1.40615	28.3277
1.40607	25.3814
1.40599	30.9351
1.40591	29.5149
1.40583	31.9405
1.40575	23.6424
1.40567	28.5059
1.40559	26.0869
1.40551	26.5357
1.40543	29.9871
1.40535	25.8244
1.40527	25.6015
1.40519	26.281
1.40511	29.1372
1.40503	30.142
1.40495	31.7312
1.40487	26.2892
1.40479	24.7624
1.4047	31.9644
1.40462	29.0112
1.40454	28.9484
1.40446	32.1212
1.40438	44.7959
1.4043	57.7415
1.40422	55.4849
1.40414	40.2427
1.40406	32.4742
1.40398	27.6534
1.4039	28.6306
1.40382	27.793
1.40374	28.8028
1.40366	25.6435
1.40358	29.405
1.4035	27.7272
1.40342	26.9787
1.40334	25.4594
1.40326	29.7269
1.40318	30
1.4031	28.3077
1.40302	28.1549
1.40294	26.2146
1.40286	32.2287
1.40278	29.9551
1.4027	26.5825
1.40262	29.8323
1.40254	28.7327
1.40246	29.1742
1.40238	26.2118
1.4023	28.1832
1.40222	31.3555
1.40214	27.5281
1.40206	31.108
1.40198	32.41
1.4019	26.6808
1.40182	30.7448
1.40174	30.6813
1.40166	27.6344
1.40158	27.0273
1.4015	30.2006
1.40142	28.0175
1.40134	30.1641
1.40126	28.9771
1.40118	26
1.4011	28.3
1.40102	31.3624
1.40094	27.2094
1.40086	28.1972
1.40078	31.0318
1.4007	28.7827
1.40062	27.8418
1.40054	27.5542
1.40046	26.6737
1.40038	29.1162
1.4003	29.3793
1.40022	27.3391
1.40015	26
1.40007	25.1535
1.39999	30.9337
1.39991	34.9958
1.39983	31.0106
1.39979	30
1.39971	30
1.39963	30
1.39955	34
1.39947	26
1.39939	30
1.3993	32
1.39922	30
1.39914	36
1.39906	22
1.39898	24
1.3989	30
1.39882	32
1.39874	32
1.39866	30
1.39858	30
1.3985	34
1.39842	30
1.39834	28
1.39826	28
1.39818	26
1.3981	26
1.39802	28
1.39795	26
1.39787	30
1.39779	36
1.39771	28
1.39763	28
1.39755	30
1.39747	30
1.39739	18
1.39731	26
1.39723	28
1.39715	34
1.39707	32
1.39699	36
1.39691	24
1.39683	20
1.39675	26
1.39667	36
1.39659	34
1.39651	32
1.39643	30
1.39635	32
1.39627	28
1.39619	28
1.39611	30
1.39603	30
1.39595	26
1.39587	28
1.39579	28
1.39571	30
1.39563	32
1.39555	26
1.39547	22
1.39539	32
1.39531	26
1.39523	26
1.39515	30
1.39507	36
1.395	28
1.39492	24
1.39484	30
1.39476	32
1.39468	28
1.3946	34
1.39452	36
1.39444	30
1.39436	20
1.39428	28
1.3942	28
1.39412	28
1.39404	26
1.39396	26
1.39388	24
1.3938	34
1.39372	28
1.39364	30
1.39357	34
1.39349	36
1.39341	20
1.39333	24
1.39325	30
1.39317	24
1.39309	18
1.39301	28
1.39293	30
1.39285	32
1.39277	22
1.39269	30
1.39261	30
1.39253	34
1.39245	28
1.39238	32
1.3923	32
1.39222	22
1.39214	28
1.39206	28
1.39198	40
1.3919	30
1.39182	22
1.39174	28
1.39166	32
1.39158	28
1.39151	26
1.39143	34
1.39135	30
1.39127	40
1.39119	30
1.39111	34
1.39103	22
1.39095	26
1.39087	32
1.39079	28
1.39071	34
1.39064	28
1.39056	28
1.39048	32
1.3904	22
1.39032	32
1.39024	34
1.39016	34
1.39008	30
1.39	28
1.38992	36
1.38985	20
1.38977	34
1.38969	32
1.38961	26
1.38953	30
1.38945	30
1.38937	28
1.38929	24
1.38922	32
1.38914	30
1.38906	30
1.38898	20
1.3889	26
1.38882	36
1.38874	22
1.38866	26
1.38858	24
1.38851	30
1.38843	28
1.38835	30
1.38827	32
1.38819	30
1.38811	32
1.38803	30
1.38796	34
1.38788	28
1.3878	32
1.38772	26
1.38764	32
1.38756	28
1.38748	20
1.38741	32
1.38733	34
1.38725	30
1.38717	22
1.38709	30
1.38701	32
1.38693	34
1.38686	32
1.38678	34
1.3867	36
1.38662	26
1.38654	26
1.38646	30
1.38638	36
1.38631	38
1.38623	24
1.38615	28
1.38607	28
1.38599	38
1.38591	30
1.38584	30
1.38576	32
1.38568	30
1.3856	28
1.38552	22
1.38544	30
1.38537	26
1.38529	30
1.38521	28
1.38513	30
1.38505	32
1.38497	26
1.3849	34
1.38482	32
1.38474	26
1.38466	28
1.38458	32
1.3845	32
1.38443	24
1.38435	32
1.38427	30
1.38419	30
1.38411	28
1.38403	24
1.38396	38
1.38388	34
1.3838	20
1.38372	28
1.38364	26
1.38357	30
1.38349	32
1.38341	28
1.38333	30
1.38325	24
1.38318	34
1.3831	22
1.38302	26
1.38294	28
1.38286	26
1.38279	30
1.38271	38
1.38263	32
1.38255	20
1.38247	28
1.3824	34
1.38232	32
1.38224	30
1.38216	28
1.38208	34
1.38201	32
1.38193	26
1.38185	30
1.38177	26
1.38169	24
1.38162	24
1.38154	32
1.38146	32
1.38138	22
1.38131	32
1.38123	26
1.38115	34
1.38107	22
1.38099	24
1.38092	34
1.38084	38
1.38076	36
1.38068	26
1.3806	28
1.38053	24
1.38045	26
1.38037	38
1.38029	40
1.38022	26
1.38014	32
1.38006	28
1.37998	34
1.37991	28
1.37983	32
1.37975	30
1.37967	34
1.3796	28
1.37952	32
1.37944	30
1.37936	32
1.37928	32
1.37921	28
1.37913	28
1.37905	30
1.37897	22
1.3789	28
1.37882	28
1.37874	30
1.37866	24
1.37859	24
1.37851	28
1.37843	34
1.37835	34
1.37828	30
1.3782	34
1.37812	28
1.37804	28
1.37797	28
1.37789	28
1.37781	26
1.37774	30
1.37766	38
1.37758	30
1.3775	36
1.37743	20
1.37735	36
1.37727	32
1.37719	28
1.37712	26
1.37704	26
1.37696	34
1.37688	32
1.37681	30
1.37673	26
1.37665	32
1.37658	32
1.3765	32
1.37642	36
1.37634	32
1.37627	18
1.37619	28
1.37611	30
1.37604	28
1.37596	32
1.37588	32
1.3758	22
1.37573	30
1.37565	30
1.37557	36
1.3755	30
1.37542	38
1.37534	34
1.37526	26
1.37519	38
1.37511	30
1.37503	30
1.37496	28
1.37488	28
1.3748	32
1.37472	24
1.37465	30
1.37457	32
1.37449	24
1.37442	34
1.37434	42
1.37426	26
1.37419	22
1.37411	34
1.37403	34
1.37396	30
1.37388	38
1.3738	34
1.37372	34
1.37365	32
1.37357	32
1.37349	32
1.37342	24
1.37334	36
1.37326	28
1.37319	32
1.37311	32
1.37303	28
1.37296	24
1.37288	28
1.3728	28
1.37273	28
1.37265	32
1.37257	32
1.3725	30
1.37242	30
1.37234	24
1.37227	30
1.37219	24
1.37211	24
1.37204	28
1.37196	30
1.37188	24
1.37181	28
1.37173	30
1.37165	38
1.37158	24
1.3715	32
1.37142	30
1.37135	34
1.37127	30
1.37119	28
1.37112	26
1.37104	30
1.37096	22
1.37089	24
1.37081	32
1.37073	28
1.37066	32
1.37058	34
1.3705	32
1.37043	32
1.37035	34
1.37027	32
1.3702	34
1.37012	26
1.37005	22
1.36997	28
1.36989	30
1.36982	32
1.36974	26
1.36966	30
1.36959	36
1.36951	30
1.36943	34
1.36936	28
1.36928	24
1.36921	32
1.36913	32
1.36905	34
1.36898	32
1.3689	32
1.36882	30
1.36875	30
1.36867	32
1.3686	26
1.36852	20
1.36844	34
1.36837	36
1.36829	32
1.36821	32
1.36814	30
1.36806	28
1.36799	30
1.36791	30
1.36783	18
1.36776	34
1.36768	32
1.3676	18
1.36753	28
1.36745	28
1.36738	34
1.3673	30
1.36722	28
1.36715	34
1.36707	28
1.367	34
1.36692	34
1.36684	24
1.36677	32
1.36669	30
1.36662	28
1.36654	28
1.36646	38
1.36639	28
1.36631	34
1.36624	28
1.36616	30
1.36608	24
1.36601	28
1.36593	28
1.36586	38
1.36578	28
1.3657	30
1.36563	24
1.36555	28
1.36548	30
1.3654	36
1.36533	36
1.36525	32
1.36517	28
1.3651	38
1.36502	34
1.36495	30
1.36487	26
1.36479	28
1.36472	32
1.36464	28
1.36457	30
1.36449	30
1.36442	30
1.36434	26
1.36426	30
1.36419	28
1.36411	22
1.36404	28
1.36396	26
1.36389	36
1.36381	30
1.36373	30
1.36366	28
1.36358	28
1.36351	32
1.36343	32
1.36336	32
1.36328	32
1.36321	32
1.36313	28
1.36305	40
1.36298	28
1.3629	28
1.36283	34
1.36275	28
1.36268	36
1.3626	32
1.36253	34
1.36245	32
1.36238	28
1.3623	28
1.36222	30
1.36215	28
1.36207	26
1.362	28
1.36192	36
1.36185	34
1.36177	24
1.3617	32
1.36162	32
1.36155	32
1.36147	24
1.36139	30
1.36132	30
1.36124	30
1.36117	32
1.36109	26
1.36102	30
1.36094	34
1.36087	24
1.36079	22
1.36072	32
1.36064	30
1.36057	30
1.36049	36
1.36042	34
1.36034	36
1.36027	26
1.36019	28
1.36012	38
1.36004	30
1.35996	28
1.35989	24
1.35981	28
1.35974	22
1.35966	28
1.35959	26
1.35951	32
1.35944	30
1.35936	32
1.35929	30
1.35921	40
1.35914	26
1.35906	32
1.35899	32
1.35891	36
1.35884	36
1.35876	32
1.35869	26
1.35861	32
1.35854	24
1.35846	26
1.35839	24
1.35831	36
1.35824	30
1.35816	26
1.35809	32
1.35801	24
1.35794	36
1.35786	30
1.35779	30
1.35771	36
1.35764	26
1.35756	24
1.35749	34
1.35741	24
1.35734	30
1.35726	32
1.35719	28
1.35711	36
1.35704	32
1.35697	24
1.35689	30
1.35682	34
1.35674	34
1.35667	32
1.35659	30
1.35652	32
1.35644	30
1.35637	30
1.35629	30
1.35622	34
1.35614	30
1.35607	32
1.35599	34
1.35592	30
1.35584	32
1.35577	32
1.3557	34
1.35562	32
1.35555	30
1.35547	32
1.3554	22
1.35532	32
1.35525	30
1.35517	26
1.3551	28
1.35502	26
1.35495	26
1.35487	26
1.3548	32
1.35473	30
1.35465	32
1.35458	28
1.3545	26
1.35443	28
1.35435	30
1.35428	40
1.3542	28
1.35413	26
1.35406	26
1.35398	38
1.35391	30
1.35383	34
1.35376	34
1.35368	30
1.35361	30
1.35353	26
1.35346	32
1.35339	40
1.35331	26
1.35324	28
1.35316	28
1.35309	32
1.35301	32
1.35294	32
1.35287	34
1.35279	30
1.35272	26
1.35264	36
1.35257	32
1.35249	38
1.35242	36
1.35235	22
1.35227	26
1.3522	26
1.35212	28
1.35205	24
1.35197	28
1.3519	28
1.35183	28
1.35175	28
1.35168	30
1.3516	32
1.35153	22
1.35146	28
1.35138	28
1.35131	20
1.35123	30
1.35116	28
1.35108	28
1.35101	32
1.35094	24
1.35086	32
1.35079	36
1.35071	28
1.35064	32
1.35057	30
1.35049	34
1.35042	28
1.35034	32
1.35027	30
1.3502	34
1.35012	32
1.35005	24
1.34997	30
1.3499	32
1.34983	30
1.34975	20
1.34968	28
1.34961	28
1.34953	28
1.34946	32
1.34938	36
1.34931	32
1.34924	32
1.34916	28
1.34909	26
1.34901	30
1.34894	28
1.34887	28
1.34879	30
1.34872	28
1.34865	26
1.34857	28
1.3485	28
1.34842	30
1.34835	32
1.34828	24
1.3482	34
1.34813	26
1.34806	30
1.34798	28
1.34791	32
1.34783	22
1.34776	24
1.34769	36
1.34761	28
1.34754	32
1.34747	28
1.34739	36
1.34732	30
1.34725	32
1.34717	30
1.3471	26
1.34702	32
1.34695	20
1.34688	32
1.3468	38
1.34673	30
1.34666	26
1.34658	28
1.34651	30
1.34644	18
1.34636	26
1.34629	30
1.34622	34
1.34614	20
1.34607	22
1.346	24
1.34592	34
1.34585	34
1.34578	30
1.3457	26
1.34563	28
1.34555	30
1.34548	30
1.34541	28
1.34533	24
1.34526	30
1.34519	34
1.34511	30
1.34504	32
1.34497	26
1.34489	22
1.34482	28
1.34475	28
1.34467	30
1.3446	32
1.34453	28
1.34445	30
1.34438	24
1.34431	30
1.34424	26
1.34416	20
1.34409	34
1.34402	28
1.34394	30
1.34387	26
1.3438	34
1.34372	28
1.34365	32
1.34358	22
1.3435	26
1.34343	28
1.34336	30
1.34328	32
1.34321	28
1.34314	24
1.34306	26
1.34299	30
1.34292	26
1.34285	26
1.34277	30
1.3427	32
1.34263	34
1.34255	28
1.34248	24
1.34241	28
1.34233	26
1.34226	34
1.34219	24
1.34212	32
1.34204	34
1.34197	28
1.3419	36
1.34182	26
1.34175	22
1.34168	28
1.3416	30
1.34153	30
1.34146	32
1.34139	28
1.34131	34
1.34124	26
1.34117	34
1.34109	26
1.34102	30
1.34095	26
1.34088	30
1.3408	24
1.34073	20
1.34066	32
1.34058	32
1.34051	34
1.34044	30
1.34037	28
1.34029	30
1.34022	30
1.34015	28
1.34008	28
1.34	24
1.33993	34
1.33986	32
1.33978	32
1.33971	28
1.33964	34
1.33957	24
1.33949	28
1.33942	34
1.33935	26
1.33928	28
1.3392	32
1.33913	26
1.33906	30
1.33899	26
1.33891	42
1.33884	28
1.33877	22
1.3387	34
1.33862	30
1.33855	26
1.33848	28
1.33841	34
1.33833	32
1.33826	26
1.33819	28
1.33812	18
1.33804	28
1.33797	28
1.3379	28
1.33783	30
1.33775	32
1.33768	30
1.33761	24
1.33754	22
1.33746	24
1.33739	30
1.33732	28
1.33725	26.0125
1.33717	31.9173
1.3371	28.0907
1.33703	31.773
1.33696	26.1934
1.33688	31.9558
1.33681	35.3932
1.33674	29.5001
1.33667	30.2758
1.3366	31.1454
1.33652	27.7241
1.33645	31.0358
1.33638	31.5976
1.33631	30.8148
1.33623	36.5058
1.33616	27.3981
1.33609	27.4042
1.33602	29.366
1.33594	28
1.33587	23.0897
1.3358	29.2039
1.33573	33.8207
1.33566	26.8256
1.33558	31.1768
1.33551	27.2523
1.33544	28.5996
1.33537	30.8887
1.3353	26.9714
1.33522	30.2649
1.33515	24.819
1.33508	24.3551
1.33501	28
1.33493	29.3422
1.33486	30.0249
1.33479	24.1013
1.33472	26.1526
1.33465	32.0234
1.33457	25.1226
1.3345	21.7342
1.33443	26.0009
1.33436	20.8829
1.33429	31.5182
1.33421	22.4095
1.33414	24.6214
1.33407	27.2933
1.334	28.3324
1.33393	30.3883
1.33385	28.4243
1.33378	29.9359
1.33371	23.1983
1.33364	28.6714
1.33357	33.925
1.33349	27.2672
1.33342	25.1165
1.33335	29.9015
1.33328	25.294
1.33321	29.844
1.33314	26.1558
1.33306	25.868
1.33299	30.0229
1.33292	25.2437
1.33285	23.8368
1.33278	27.1169
1.3327	29.7189
1.33263	28.1291
1.33256	27.2502
1.33249	26
1.33242	28.1649
1.33235	28.2413
1.33227	26.4547
1.3322	23.527
1.33213	29.5037
1.33206	25.0021
1.33199	28.4814
1.33191	25.4991
1.33184	25.6703
1.33177	27.1438
1.3317	27.3469
1.33163	28.3067
1.33156	29.3339
1.33148	23.8533
1.33141	25.174
1.33134	21.2916
1.33127	25.8412
1.3312	23.9987
1.33113	23.2212
1.33105	26.742
1.33098	29.699
1.33091	29.0895
1.33084	27.4757
1.33077	28.4682
1.3307	31.8701
1.33062	29.5979
1.33055	25.7799
1.33048	27.7772
1.33041	27.4462
1.33034	25.8738
1.33027	27.2056
1.3302	29.1175
1.33012	28.5892
1.33005	29.1102
1.32998	25.1182
1.32991	25.624
1.32988	28
1.32981	28
1.32974	28
1.32967	26
1.32959	36
1.32952	32
1.32945	30
1.32938	26
1.32931	24
1.32923	28
1.32916	18
1.32909	30
1.32902	32
1.32895	26
1.32888	30
1.3288	28
1.32873	28
1.32866	28
1.32859	32
1.32852	30
1.32844	26
1.32837	22
1.3283	26
1.32823	28
1.32816	28
1.32809	24
1.32801	30
1.32794	26
1.32787	26
1.3278	24
1.32773	28
1.32766	32
1.32758	30
1.32751	26
1.32744	30
1.32737	34
1.3273	34
1.32723	26
1.32715	30
1.32708	30
1.32701	28
1.32694	34
1.32687	24
1.3268	32
1.32672	26
1.32665	28
1.32658	30
1.32651	26
1.32644	30
1.32637	24
1.3263	30
1.32622	34
1.32615	32
1.32608	26
1.32601	34
1.32594	28
1.32587	30
1.3258	20
1.32572	26
1.32565	28
1.32558	24
1.32551	26
1.32544	28
1.32537	26
1.3253	28
1.32522	28
1.32515	36
1.32508	34
1.32501	26
1.32494	28
1.32487	24
1.3248	30
1.32472	30
1.32465	32
1.32458	38
1.32451	26
1.32444	22
1.32437	28
1.3243	32
1.32423	32
1.32415	22
1.32408	30
1.32401	30
1.32394	24
1.32387	28
1.3238	26
1.32373	26
1.32366	30
1.32358	32
1.32351	32
1.32344	24
1.32337	28
1.3233	28
1.32323	36
1.32316	28
1.32309	30
1.32302	30
1.32294	32
1.32287	28
1.3228	26
1.32273	30
1.32266	32
1.32259	26
1.32252	34
1.32245	32
1.32238	30
1.32231	24
1.32223	24
1.32216	30
1.32209	32
1.32202	32
1.32195	28
1.32188	24
1.32181	30
1.32174	22
1.32167	26
1.3216	32
1.32152	32
1.32145	30
1.32138	24
1.32131	30
1.32124	32
1.32117	26
1.3211	30
1.32103	30
1.32096	28
1.32089	36
1.32082	26
1.32074	32
1.32067	36
1.3206	26
1.32053	34
1.32046	34
1.32039	26
1.32032	28
1.32025	30
1.32018	30
1.32011	28
1.32004	20
1.31997	26
1.3199	34
1.31982	26
1.31975	24
1.31968	30
1.31961	28
1.31954	24
1.31947	28
1.3194	32
1.31933	34
1.31926	30
1.31919	24
1.31912	34
1.31905	26
1.31898	32
1.31891	24
1.31884	30
1.31876	26
1.31869	26
1.31862	38
1.31855	32
1.31848	32
1.31841	26
1.31834	34
1.31827	34
1.3182	30
1.31813	26
1.31806	30
1.31799	22
1.31792	30
1.31785	26
1.31778	30
1.31771	24
1.31764	30
1.31757	34
1.3175	28
1.31742	34
1.31735	22
1.31728	28
1.31721	28
1.31714	34
1.31707	30
1.317	28
1.31693	26
1.31686	28
1.31679	28
1.31672	26
1.31665	26
1.31658	32
1.31651	30
1.31644	32
1.31637	30
1.3163	24
1.31623	28
1.31616	28
1.31609	30
1.31602	28
1.31595	30
1.31588	26
1.31581	34
1.31574	32
1.31567	30
1.3156	36
1.31553	34
1.31546	30
1.31539	30
1.31532	26
1.31525	30
1.31518	30
1.3151	26
1.31503	30
1.31496	34
1.31489	28
1.31482	36
1.31475	28
1.31468	32
1.31461	32
1.31454	28
1.31447	28
1.3144	26
1.31433	26
1.31426	30
1.31419	28
1.31412	32
1.31405	22
1.31398	20
1.31391	32
1.31384	30
1.31377	40
1.3137	30
1.31363	32
1.31356	28
1.31349	32
1.31342	30
1.31335	24
1.31328	26
1.31321	26
1.31314	34
1.31307	30
1.313	32
1.31293	30
1.31286	26
1.31279	34
1.31272	28
1.31265	28
1.31258	28
1.31251	28
1.31244	36
1.31238	30
1.31231	32
1.31224	42
1.31217	26
1.3121	30
1.31203	30
1.31196	28
1.31189	30
1.31182	28
1.31175	34
1.31168	34
1.31161	24
1.31154	36
1.31147	32
1.3114	32
1.31133	26
1.31126	32
1.31119	32
1.31112	30
1.31105	28
1.31098	28
1.31091	24
1.31084	24
1.31077	28
1.3107	30
1.31063	30
1.31056	22
1.31049	28
1.31042	28
1.31035	32
1.31028	30
1.31021	26
1.31014	42
1.31008	34
1.31001	28
1.30994	32
1.30987	30
1.3098	26
1.30973	36
1.30966	28
1.30959	30
1.30952	34
1.30945	30
1.30938	32
1.30931	24
1.30924	30
1.30917	32
1.3091	26
1.30903	32
1.30896	28
1.30889	24
1.30882	28
1.30876	30
1.30869	30
1.30862	24
1.30855	28
1.30848	32
1.30841	22
1.30834	28
1.30827	34
1.3082	28
1.30813	32
1.30806	32
1.30799	22
1.30792	36
1.30785	28
1.30778	36
1.30771	30
1.30765	32
1.30758	32
1.30751	28
1.30744	32
1.30737	24
1.3073	24
1.30723	28
1.30716	30
1.30709	34
1.30702	36
1.30695	28
1.30688	28
1.30682	40
1.30675	26
1.30668	28
1.30661	38
1.30654	38
1.30647	36
1.3064	22
1.30633	28
1.30626	30
1.30619	28
1.30612	30
1.30605	28
1.30599	36
1.30592	28
1.30585	32
1.30578	34
1.30571	32
1.30564	28
1.30557	32
1.3055	32
1.30543	38
1.30536	30
1.3053	18
1.30523	26
1.30516	28
1.30509	36
1.30502	26
1.30495	28
1.30488	28
1.30481	30
1.30474	30
1.30467	34
1.30461	28
1.30454	28
1.30447	34
1.3044	34
1.30433	30
1.30426	34
1.30419	36
1.30412	32
1.30405	36
1.30399	28
1.30392	32
1.30385	40
1.30378	30
1.30371	24
1.30364	22
1.30357	30
1.3035	30
1.30344	30
1.30337	38
1.3033	34
1.30323	26
1.30316	28
1.30309	28
1.30302	26
1.30295	26
1.30289	34
1.30282	32
1.30275	36
1.30268	28
1.30261	28
1.30254	34
1.30247	32
1.3024	26
1.30234	24
1.30227	42
1.3022	40
1.30213	30
1.30206	28
1.30199	28
1.30192	30
1.30186	28
1.30179	28
1.30172	28
1.30165	32
1.30158	28
1.30151	32
1.30144	34
1.30138	34
1.30131	26
1.30124	22
1.30117	32
1.3011	30
1.30103	28
1.30097	32
1.3009	34
1.30083	26
1.30076	38
1.30069	34
1.30062	28
1.30055	40
1.30049	32
1.30042	34
1.30035	26
1.30028	26
1.30021	34
1.30014	34
1.30008	34
1.30001	24
