#Acq. time (s)=	2
#Accumulations=	1
#Range (eV)=	2...1
#Windows=	11
#Autofocus=	Off
#AutoExposure=	Off
#Spike filter=	Off
#Delay time (s)=	0
#Binning=	1
#Readout mode=	Signal
#DeNoise=	Off
#ICS correction=	Off
#Dark correction=	Off
#Inst. Process=	Off
#Instrument=	LabRAM HR Evol
#Detector=	Syncerity OE
#Objective=	x10_VIS
#Grating=	600 (500nm)
#ND Filter=	25%
#Laser=	442nm_Notch
#Hole=	100.021
#Range=	Visible
#Project=	Paty
#Sample=	
#Site=	15-06-22
#Title=	CdSe1
#Remark=	
#Date=	15.06.2022 20:06
#Acquired=	15.06.2022 20:06:23
2.74975	26
2.74943	34
2.74911	30
2.74879	32
2.74847	28
2.74814	30
2.74782	26
2.7475	28
2.74718	26
2.74686	32
2.74654	26
2.74621	20
2.74589	20
2.74557	30
2.74525	30
2.74493	26
2.74461	24
2.74429	30
2.74397	32
2.74365	32
2.74332	28
2.743	32
2.74268	22
2.74236	28
2.74204	26
2.74172	22
2.7414	28
2.74108	24
2.74076	32
2.74044	32
2.74012	20
2.7398	24
2.73948	28
2.73916	22
2.73884	30
2.73852	24
2.7382	26
2.73788	32
2.73756	26
2.73725	24
2.73693	32
2.73661	30
2.73629	22
2.73597	24
2.73565	30
2.73533	28
2.73501	22
2.73469	34
2.73438	26
2.73406	26
2.73374	24
2.73342	20
2.7331	26
2.73278	20
2.73247	30
2.73215	26
2.73183	28
2.73151	30
2.73119	24
2.73088	32
2.73056	24
2.73024	22
2.72992	34
2.72961	26
2.72929	26
2.72897	18
2.72865	30
2.72834	34
2.72802	24
2.7277	22
2.72739	30
2.72707	36
2.72675	28
2.72643	30
2.72612	30
2.7258	30
2.72549	22
2.72517	28
2.72485	28
2.72454	32
2.72422	32
2.7239	28
2.72359	30
2.72327	30
2.72296	22
2.72264	26
2.72232	28
2.72201	26
2.72169	26
2.72138	28
2.72106	24
2.72075	24
2.72043	34
2.72012	30
2.7198	28
2.71949	30
2.71917	24
2.71886	32
2.71854	38
2.71823	22
2.71791	32
2.7176	34
2.71728	36
2.71697	32
2.71665	24
2.71634	28
2.71603	20
2.71571	30
2.7154	24
2.71508	34
2.71477	30
2.71446	22
2.71414	32
2.71383	24
2.71352	30
2.7132	26
2.71289	30
2.71257	32
2.71226	30
2.71195	32
2.71163	28
2.71132	28
2.71101	34
2.7107	32
2.71038	26
2.71007	32
2.70976	28
2.70944	30
2.70913	32
2.70882	34
2.70851	28
2.70819	34
2.70788	30
2.70757	22
2.70726	34
2.70695	22
2.70663	30
2.70632	28
2.70601	28
2.7057	32
2.70539	32
2.70508	30
2.70476	28
2.70445	26
2.70414	28
2.70383	30
2.70352	38
2.70321	32
2.7029	32
2.70259	36
2.70227	26
2.70196	28
2.70165	28
2.70134	30
2.70103	32
2.70072	30
2.70041	30
2.7001	26
2.69979	30
2.69948	28
2.69917	28
2.69886	28
2.69855	30
2.69824	30
2.69793	30
2.69762	22
2.69731	26
2.697	32
2.69669	24
2.69638	36
2.69607	26
2.69576	26
2.69545	26
2.69514	34
2.69483	30
2.69452	34
2.69422	32
2.69391	38
2.6936	38
2.69329	30
2.69298	28
2.69267	30
2.69236	26
2.69205	28
2.69175	28
2.69144	28
2.69113	30
2.69082	28
2.69051	32
2.6902	34
2.6899	28
2.68959	26
2.68928	22
2.68897	26
2.68867	30
2.68836	30
2.68805	34
2.68774	24
2.68744	32
2.68713	38
2.68682	24
2.68651	28
2.68621	26
2.6859	26
2.68559	30
2.68529	30
2.68498	32
2.68467	32
2.68436	30
2.68406	20
2.68375	34
2.68344	30
2.68314	30
2.68283	28
2.68253	38
2.68222	34
2.68191	32
2.68161	30
2.6813	24
2.681	28
2.68069	34
2.68038	26
2.68008	30
2.67977	34
2.67947	32
2.67916	30
2.67886	34
2.67855	32
2.67825	32
2.67794	34
2.67764	30
2.67733	32
2.67703	38
2.67672	28
2.67642	28
2.67611	28
2.67581	28
2.6755	22
2.6752	34
2.67489	26
2.67459	28
2.67428	28
2.67398	24
2.67368	24
2.67337	26
2.67307	32
2.67276	30
2.67246	26
2.67216	28
2.67185	26
2.67155	36
2.67124	36
2.67094	26
2.67064	34
2.67033	28
2.67003	28
2.66973	30
2.66942	36
2.66912	36
2.66882	30
2.66851	34
2.66821	26
2.66791	26
2.66761	26
2.6673	32
2.667	24
2.6667	28
2.6664	28
2.66609	26
2.66579	40
2.66549	44
2.66519	34
2.66488	32
2.66458	38
2.66428	36
2.66398	28
2.66368	30
2.66337	32
2.66307	30
2.66277	26
2.66247	30
2.66217	30
2.66187	30
2.66157	32
2.66126	28
2.66096	34
2.66066	34
2.66036	26
2.66006	26
2.65976	36
2.65946	32
2.65916	34
2.65886	26
2.65856	28
2.65826	38
2.65795	32
2.65765	30
2.65735	36
2.65705	38
2.65675	26
2.65645	36
2.65615	32
2.65585	26
2.65555	30
2.65525	38
2.65495	34
2.65465	34
2.65435	30
2.65405	30
2.65375	36
2.65346	30
2.65316	32
2.65286	44
2.65256	34
2.65226	34
2.65196	32
2.65166	24
2.65136	26
2.65106	32
2.65076	26
2.65046	26
2.65017	26
2.64987	38
2.64957	32
2.64927	30
2.64897	28
2.64867	28
2.64838	28
2.64808	34
2.64778	38
2.64748	28
2.64718	30
2.64688	38
2.64659	26
2.64629	28
2.64599	30
2.64569	32
2.6454	34
2.6451	32
2.6448	32
2.6445	36
2.64421	34
2.64391	28
2.64361	28
2.64331	36
2.64302	26
2.64272	26
2.64242	26
2.64213	38
2.64183	32
2.64153	36
2.64124	34
2.64094	38
2.64064	32
2.64035	32
2.64005	34
2.63976	32
2.63946	24
2.63916	22
2.63887	30
2.63857	40
2.63827	32
2.63798	30
2.63768	30
2.63739	38
2.63709	26
2.6368	26
2.6365	38
2.6362	34
2.63591	34
2.63561	28
2.63532	42
2.63502	32
2.63473	32
2.63443	32
2.63414	32
2.63384	32
2.63355	34
2.63325	26
2.63296	30
2.63266	36
2.63237	30
2.63208	42
2.63178	38
2.63149	30
2.63119	32
2.6309	32
2.6306	36
2.63031	34
2.63002	32
2.62972	34
2.62943	32
2.62913	30
2.62884	30
2.62855	38
2.62825	30
2.62796	32
2.62767	32
2.62737	32
2.62708	32
2.62679	34
2.62649	30
2.6262	30
2.62591	28
2.62561	30
2.62532	38
2.62503	38
2.62474	24
2.62444	28
2.62415	36
2.62386	38
2.62356	36
2.62327	30
2.62298	34
2.62269	30
2.6224	30
2.6221	24
2.62181	36
2.62152	40
2.62123	28
2.62094	28
2.62064	30
2.62035	40
2.62006	30
2.61977	36
2.61948	40
2.61918	28
2.61889	30
2.6186	30
2.61831	38
2.61802	32
2.61773	32
2.61744	34
2.61715	40
2.61686	36
2.61656	36
2.61627	28
2.61598	44
2.61569	36
2.6154	30
2.61511	32
2.61482	40
2.61453	40
2.61424	32
2.61395	32
2.61366	36
2.61337	32
2.61308	28
2.61279	34
2.6125	34
2.61221	34
2.61192	32
2.61163	36
2.61134	32
2.61105	30
2.61076	32
2.61047	36
2.61018	40
2.60989	32
2.6096	32
2.60931	34
2.60902	38
2.60873	30
2.60845	32
2.60816	34
2.60787	40
2.60758	38
2.60729	32
2.607	34
2.60671	32
2.60642	30
2.60614	36
2.60585	44
2.60556	32
2.60527	30
2.60498	34
2.60469	36
2.60441	38
2.60412	38
2.60383	38
2.60354	36
2.60325	36
2.60297	40
2.60268	42
2.60239	42
2.6021	24
2.60182	36
2.60153	36
2.60124	40
2.60095	40
2.60067	32
2.60038	44
2.60009	40
2.5998	36
2.59952	36
2.59923	36
2.59894	34
2.59866	44
2.59837	40
2.59808	40
2.5978	40
2.59751	36
2.59722	44
2.59694	32
2.59665	42
2.59637	30
2.59608	44
2.59579	34
2.59551	30
2.59522	28
2.59493	44
2.59465	38
2.59436	36
2.59408	32
2.59379	38
2.59351	30
2.59322	38
2.59293	36
2.59265	34
2.59236	44
2.59208	42
2.59179	40
2.59151	38
2.59122	36
2.59094	38
2.59065	34
2.59037	38
2.59008	40
2.5898	40
2.58951	42
2.58923	38
2.58894	38
2.58866	36
2.58838	34
2.58809	40
2.58781	30
2.58752	32
2.58724	46
2.58695	40
2.58667	32
2.58639	38
2.5861	36
2.58582	36
2.58553	36
2.58525	44
2.58497	32
2.58468	38
2.5844	40
2.58412	40
2.58383	40
2.58355	42
2.58327	36
2.58298	40
2.5827	36
2.58242	36
2.58213	30
2.58185	38
2.58157	42
2.58128	30
2.581	44
2.58072	42
2.58044	42
2.58015	38
2.57987	38
2.57959	38
2.57931	44
2.57902	34
2.57874	38
2.57846	44
2.57818	44
2.5779	36
2.57761	36
2.57733	42
2.57705	38
2.57677	40
2.57649	36
2.5762	50
2.57592	50
2.57564	44
2.57536	42
2.57508	38
2.5748	36
2.57452	42
2.57423	46
2.57395	42
2.57367	44
2.57339	40
2.57311	42
2.57283	42
2.57255	38
2.57227	42
2.57199	42
2.57171	44
2.57143	44
2.57115	48
2.57086	32
2.57058	40
2.5703	46
2.57002	48
2.56974	42
2.56946	38
2.56918	42
2.5689	42
2.56862	48
2.56834	44
2.56806	38
2.56778	36
2.5675	38
2.56722	36
2.56694	46
2.56667	44
2.56639	38
2.56611	40
2.56583	42
2.56555	40
2.56527	36
2.56499	40
2.56471	46
2.56443	48
2.56415	40
2.56387	46
2.56359	40
2.56332	42
2.56304	46
2.56276	52
2.56248	40
2.5622	48
2.56192	48
2.56164	44
2.56137	46
2.56109	52
2.56081	50
2.56053	48
2.56025	50
2.55998	46
2.5597	46
2.55942	54
2.55914	50
2.55886	46
2.55859	44
2.55831	46
2.55803	44
2.55775	60
2.55748	42
2.5572	42
2.55692	36
2.55664	52
2.55637	42
2.55609	56
2.55581	52
2.55554	48
2.55526	46
2.55498	44
2.5547	46
2.55443	54
2.55415	54
2.55387	54
2.5536	42
2.55332	48
2.55305	52
2.55277	50
2.55249	44
2.55222	54
2.55194	54
2.55166	52
2.55139	52
2.55111	56
2.55084	48
2.55056	38
2.55028	42
2.55001	50
2.54973	50
2.54946	50
2.54918	44
2.54891	50
2.54863	46
2.54836	48
2.54808	46
2.5478	52
2.54753	56
2.54725	50
2.54698	52
2.5467	54
2.54643	50
2.54615	42
2.54588	46
2.5456	52
2.54533	48
2.54505	62
2.54478	56
2.54451	54
2.54423	60
2.54396	60
2.54368	52
2.54341	58
2.54313	52
2.54286	62
2.54259	54
2.54231	54
2.54204	52
2.54176	58
2.54149	56
2.54122	54
2.54094	54
2.54067	48
2.5404	54
2.54012	56
2.53985	46
2.53957	64
2.5393	50
2.53903	62
2.53875	56
2.53848	54
2.53821	62
2.53794	54
2.53766	44
2.53739	56
2.53712	54
2.53684	48
2.53657	50
2.5363	55
2.53603	60
2.53575	76
2.53548	62
2.53521	58
2.53494	52
2.53466	58
2.53439	52
2.53412	50
2.53385	56
2.53357	66
2.5333	52
2.53303	54
2.53276	60
2.53249	70
2.53222	68
2.53194	60
2.53167	62
2.5314	62
2.53113	54
2.53086	58
2.53059	62
2.53031	66
2.53004	58
2.52977	50
2.5295	70
2.52923	62
2.52896	64
2.52869	62
2.52842	60
2.52815	54
2.52787	60
2.5276	66
2.52733	64
2.52706	74
2.52679	64
2.52652	62
2.52625	66
2.52598	66
2.52571	66
2.52544	54
2.52517	64
2.5249	74
2.52463	58
2.52436	62
2.52409	64
2.52382	58
2.52355	68
2.52328	70
2.52301	74
2.52274	64
2.52247	70
2.5222	66
2.52193	62
2.52166	60
2.52139	58
2.52112	70
2.52085	76
2.52059	64
2.52032	74
2.52005	68
2.51978	66
2.51951	72
2.51924	60
2.51897	60
2.5187	68
2.51843	66
2.51817	68
2.5179	66
2.51763	70
2.51736	84
2.51709	72
2.51682	74
2.51656	74
2.51629	70
2.51602	72
2.51575	68
2.51548	76
2.51521	82
2.51495	70
2.51468	70
2.51441	70
2.51414	60
2.51388	76
2.51361	64
2.51334	64
2.51307	76
2.51281	80
2.51254	66
2.51227	66
2.512	72
2.51174	68
2.51147	82
2.5112	80
2.51093	74
2.51067	76
2.5104	82
2.51013	70
2.50987	76
2.5096	70
2.50933	72
2.50907	70
2.5088	70
2.50853	82
2.50827	84
2.508	76
2.50773	80
2.50747	78
2.5072	72
2.50694	70
2.50667	74
2.5064	78
2.50614	88
2.50587	78
2.50561	80
2.50534	80
2.50507	76
2.50481	92
2.50454	86
2.50428	90
2.50401	78
2.50375	90
2.50348	90
2.50322	76
2.50295	88
2.50269	80
2.50242	88
2.50216	82
2.50189	80
2.50163	84
2.50136	84
2.5011	88
2.50083	76
2.50057	82
2.5003	84
2.50004	94
2.49977	86
2.49951	84
2.49924	86
2.49898	88
2.49871	86
2.49845	96
2.49819	104
2.49792	84
2.49766	82
2.49739	98
2.49713	82
2.49687	88
2.4966	88
2.49634	82
2.49607	92
2.49581	78
2.49555	92
2.49528	94
2.49502	94
2.49476	88
2.49449	92
2.49423	94
2.49397	90
2.4937	100
2.49344	90
2.49318	88
2.49291	90
2.49265	94
2.49239	80
2.49212	86
2.49186	86
2.4916	90
2.49134	106
2.49107	90
2.49081	100
2.49055	98
2.49029	114
2.49002	98
2.48976	98
2.4895	88
2.48924	96
2.48897	100
2.48871	104
2.48845	94
2.48819	104
2.48793	96
2.48766	104
2.4874	100
2.48714	106
2.48688	100
2.48662	100
2.48636	114
2.48609	110
2.48583	98
2.48557	96
2.48531	104
2.48505	104
2.48479	114
2.48453	100
2.48427	104
2.484	102
2.48374	92
2.48348	94
2.48322	114
2.48296	92
2.4827	110
2.48244	114.04
2.48218	106.197
2.48192	102.53
2.48166	112.299
2.4814	108.386
2.48114	114.326
2.48088	99.2043
2.48061	102.794
2.48035	112.22
2.48009	113.944
2.47983	105.369
2.47957	116.602
2.47931	115.148
2.47905	115.337
2.47879	109.211
2.47853	120.502
2.47827	115.144
2.47801	123.733
2.47775	123.832
2.47749	106.848
2.47724	115.29
2.47698	113.791
2.47672	120.227
2.47646	116.653
2.4762	116.851
2.47594	120.05
2.47568	111.731
2.47542	115.99
2.47516	126.392
2.4749	122.584
2.47464	124.343
2.47438	130.868
2.47412	120.64
2.47387	122.274
2.47361	118.527
2.47335	130.565
2.47309	121.884
2.47283	123.487
2.47257	122.328
2.47231	125.858
2.47205	127.838
2.4718	134.801
2.47154	135.161
2.47128	133.69
2.47102	137.309
2.47076	128.569
2.47051	132.912
2.47025	135.871
2.46999	123.442
2.46973	135.98
2.46947	135
2.46922	133.588
2.46896	140.957
2.4687	130.713
2.46844	134.739
2.46818	145.754
2.46793	140.048
2.46767	132.914
2.46741	138.715
2.46715	141.554
2.4669	139.169
2.46664	137.454
2.46638	141.496
2.46613	150.059
2.46587	141.875
2.46561	144.559
2.46535	133.87
2.4651	144.308
2.46484	150.424
2.46458	143.447
2.46433	147.057
2.46407	144.277
2.46381	142.581
2.46356	143.103
2.4633	150.67
2.46304	152.367
2.46279	150.767
2.46253	155.673
2.46227	150.438
2.46202	148.722
2.46176	149.595
2.46151	151.677
2.46125	161.239
2.46099	165.569
2.46074	156.343
2.46048	156.353
2.46023	159.925
2.45997	160.522
2.45971	164.82
2.45946	169.181
2.4592	166.677
2.45895	163.065
2.45869	166.105
2.45844	161.703
2.45818	162.311
2.45792	169.285
2.45767	175.436
2.45741	181.583
2.45716	161.595
2.4569	152.886
2.45665	166.198
2.45647	172
2.45621	184
2.45596	172
2.4557	162
2.45544	178
2.45519	184
2.45493	162
2.45468	172
2.45442	184
2.45416	172
2.45391	180
2.45365	178
2.4534	172
2.45314	168
2.45289	172
2.45263	168
2.45238	168
2.45212	162
2.45187	170
2.45161	194
2.45136	178
2.4511	180
2.45085	168
2.45059	184
2.45034	186
2.45008	188
2.44983	182
2.44957	196
2.44932	182
2.44906	184
2.44881	168
2.44856	188
2.4483	204
2.44805	172
2.44779	184
2.44754	182
2.44728	190
2.44703	192
2.44678	186
2.44652	180
2.44627	200
2.44601	200
2.44576	194
2.44551	192
2.44525	194
2.445	210
2.44475	192
2.44449	196
2.44424	176
2.44399	188
2.44373	198
2.44348	200
2.44323	200
2.44297	184
2.44272	204
2.44247	200
2.44221	184
2.44196	198
2.44171	200
2.44145	210
2.4412	192
2.44095	192
2.4407	214
2.44044	224
2.44019	204
2.43994	180
2.43969	192
2.43943	200
2.43918	198
2.43893	204
2.43868	210
2.43842	216
2.43817	202
2.43792	216
2.43767	222
2.43742	208
2.43716	202
2.43691	208
2.43666	216
2.43641	194
2.43616	206
2.4359	204
2.43565	212
2.4354	212
2.43515	210
2.4349	220
2.43465	230
2.4344	214
2.43414	216
2.43389	228
2.43364	224
2.43339	200
2.43314	220
2.43289	206
2.43264	224
2.43239	224
2.43214	216
2.43188	210
2.43163	226
2.43138	224
2.43113	202
2.43088	208
2.43063	226
2.43038	238
2.43013	230
2.42988	224
2.42963	226
2.42938	234
2.42913	236
2.42888	228
2.42863	230
2.42838	226
2.42813	228
2.42788	236
2.42763	224
2.42738	222
2.42713	226
2.42688	222
2.42663	236
2.42638	246
2.42613	224
2.42588	222
2.42563	234
2.42538	238
2.42513	230
2.42488	228
2.42463	236
2.42438	212
2.42413	260
2.42389	240
2.42364	258
2.42339	218
2.42314	250
2.42289	226
2.42264	234
2.42239	238
2.42214	256
2.42189	244
2.42165	244
2.4214	244
2.42115	248
2.4209	246
2.42065	248
2.4204	256
2.42016	228
2.41991	242
2.41966	234
2.41941	246
2.41916	228
2.41891	240
2.41867	260
2.41842	248
2.41817	234
2.41792	254
2.41768	226
2.41743	244
2.41718	256
2.41693	246
2.41668	276
2.41644	254
2.41619	242
2.41594	252
2.41569	250
2.41545	246
2.4152	260
2.41495	256
2.41471	254
2.41446	264
2.41421	248
2.41396	262
2.41372	254
2.41347	272
2.41322	246
2.41298	274
2.41273	276
2.41248	254
2.41224	278
2.41199	224
2.41174	250
2.4115	260
2.41125	274
2.411	264
2.41076	256
2.41051	256
2.41027	254
2.41002	266
2.40977	272
2.40953	252
2.40928	288
2.40903	256
2.40879	264
2.40854	274
2.4083	266
2.40805	266
2.40781	268
2.40756	288
2.40731	270
2.40707	268
2.40682	252
2.40658	268
2.40633	262
2.40609	280
2.40584	266
2.4056	268
2.40535	278
2.40511	262
2.40486	274
2.40462	260
2.40437	260
2.40413	272
2.40388	268
2.40364	284
2.40339	300
2.40315	284
2.4029	280
2.40266	270
2.40241	280
2.40217	274
2.40192	274
2.40168	264
2.40144	278
2.40119	268
2.40095	280
2.4007	270
2.40046	290
2.40021	276
2.39997	260
2.39973	282
2.39948	298
2.39924	274
2.39899	266
2.39875	284
2.39851	268
2.39826	274
2.39802	270
2.39778	264
2.39753	292
2.39729	284
2.39705	286
2.3968	294
2.39656	292
2.39632	302
2.39607	292
2.39583	274
2.39559	274
2.39534	294
2.3951	278
2.39486	278
2.39461	282
2.39437	278
2.39413	280
2.39389	302
2.39364	286
2.3934	272
2.39316	288
2.39292	286
2.39267	280
2.39243	290
2.39219	288
2.39195	300
2.3917	296
2.39146	302
2.39122	280
2.39098	286
2.39073	286
2.39049	268
2.39025	296
2.39001	302
2.38977	290
2.38953	302
2.38928	294
2.38904	290
2.3888	304
2.38856	292
2.38832	292
2.38808	294
2.38783	282
2.38759	280
2.38735	300
2.38711	298
2.38687	304
2.38663	290
2.38639	282
2.38614	290
2.3859	300
2.38566	312
2.38542	276
2.38518	270
2.38494	300
2.3847	274
2.38446	296
2.38422	308
2.38398	280
2.38374	296
2.3835	294
2.38326	308
2.38301	312
2.38277	302
2.38253	308
2.38229	304
2.38205	256
2.38181	298
2.38157	288
2.38133	298
2.38109	294
2.38085	304
2.38061	304
2.38037	316
2.38013	310
2.37989	296
2.37965	304
2.37941	308
2.37917	310
2.37893	304
2.37869	296
2.37846	292
2.37822	302
2.37798	280
2.37774	310
2.3775	308
2.37726	296
2.37702	316
2.37678	304
2.37654	302
2.3763	298
2.37606	308
2.37582	324
2.37558	298
2.37535	284
2.37511	310
2.37487	310
2.37463	330
2.37439	308
2.37415	304
2.37391	332
2.37368	296
2.37344	312
2.3732	308
2.37296	296
2.37272	330
2.37248	298
2.37225	292
2.37201	294
2.37177	328
2.37153	290
2.37129	274
2.37105	316
2.37082	296
2.37058	300
2.37034	318
2.3701	292
2.36987	276
2.36963	312
2.36939	302
2.36915	308
2.36892	310
2.36868	300
2.36844	288
2.3682	284
2.36797	324
2.36773	316
2.36749	314
2.36725	316
2.36702	312
2.36678	304
2.36654	294
2.36631	298
2.36607	300
2.36583	286
2.3656	296
2.36536	314
2.36512	288
2.36489	298
2.36465	308
2.36441	298
2.36418	304
2.36394	278
2.3637	318
2.36347	324
2.36323	306
2.36299	284
2.36276	298
2.36252	318
2.36228	298
2.36205	298
2.36181	290
2.36158	304
2.36134	304
2.3611	310
2.36087	310
2.36063	288
2.3604	298
2.36016	304
2.35993	296
2.35969	300
2.35946	298
2.35922	296
2.35898	282
2.35875	298
2.35851	322
2.35828	292
2.35804	316
2.35781	302
2.35757	284
2.35734	320
2.3571	302
2.35687	292
2.35663	314
2.3564	306
2.35616	296
2.35593	304
2.35569	288
2.35546	304
2.35522	308
2.35499	302
2.35475	270
2.35452	294
2.35429	282
2.35405	270
2.35382	274
2.35358	278
2.35335	298
2.35311	284
2.35288	308
2.35265	284
2.35241	304
2.35218	310
2.35194	278
2.35171	296
2.35148	310
2.35124	282
2.35101	280
2.35077	286
2.35054	266
2.35031	300
2.35007	274
2.34984	278
2.34961	272
2.34937	280
2.34914	306
2.34891	290
2.34867	272
2.34844	304
2.34821	276
2.34797	280
2.34774	294
2.34751	270
2.34727	286
2.34704	280
2.34681	282
2.34658	278
2.34634	274
2.34611	292
2.34588	290
2.34564	262
2.34541	282
2.34518	280
2.34495	282
2.34471	274
2.34448	268
2.34425	294
2.34402	282
2.34378	280
2.34355	292
2.34332	276
2.34309	280
2.34286	284
2.34262	278
2.34239	284
2.34216	276
2.34193	280
2.3417	282
2.34146	268
2.34123	276
2.341	268
2.34077	260
2.34054	286
2.34031	274
2.34007	294
2.33984	262
2.33961	260
2.33938	264
2.33915	274
2.33892	284
2.33869	278
2.33845	286
2.33822	274
2.33799	272
2.33776	266
2.33753	278
2.3373	256
2.33707	256
2.33684	270
2.33661	270
2.33638	244
2.33615	260
2.33591	272
2.33568	272
2.33545	264
2.33522	278
2.33499	262
2.33476	282
2.33453	270
2.3343	244
2.33407	258
2.33384	248
2.33361	276
2.33338	246
2.33315	246
2.33292	268
2.33269	246
2.33246	290
2.33223	274
2.332	248
2.33177	252
2.33154	264
2.33131	260
2.33108	266
2.33085	258
2.33062	254
2.33039	244
2.33016	256
2.32993	266
2.3297	254
2.32948	260
2.32925	264
2.32902	248
2.32879	248
2.32856	266
2.32833	242
2.3281	242
2.32787	238
2.32764	256
2.32741	252
2.32718	254
2.32696	240
2.32673	240
2.3265	250
2.32627	230
2.32604	236
2.32581	230
2.32558	258
2.32536	244
2.32513	264
2.3249	244
2.32467	240
2.32444	250
2.32421	230
2.32399	240
2.32376	244
2.32353	268
2.3233	256
2.32307	254
2.32284	274
2.32262	240
2.32239	260
2.32216	250
2.32193	260
2.32171	234
2.32148	248
2.32125	242
2.32102	246
2.3208	246
2.32057	238
2.32034	254
2.32011	236
2.31989	250
2.31966	234
2.31943	250
2.3192	242
2.31898	234
2.31875	238
2.31852	230
2.3183	242
2.31807	232
2.31784	228
2.31761	228
2.31739	230
2.31716	240
2.31693	226
2.31671	222
2.31648	224
2.31625	252
2.31603	240
2.3158	228
2.31557	220
2.31535	236
2.31512	234
2.3149	234
2.31467	224
2.31444	214
2.31422	218
2.31399	238
2.31376	218
2.31354	222
2.31331	216
2.31309	226
2.31286	234
2.31263	228
2.31241	242
2.31218	228
2.31196	234
2.31173	210
2.31151	232
2.31128	220
2.31105	238
2.31083	222
2.3106	232
2.31038	220
2.31015	238
2.30993	222
2.3097	222
2.30948	236
2.30925	222
2.30903	236
2.3088	208
2.30858	238
2.30835	220
2.30813	232
2.3079	226
2.30768	228
2.30745	227
2.30723	226
2.307	224
2.30678	224
2.30655	210
2.30633	200
2.3061	218
2.30588	202
2.30565	204
2.30543	226
2.30521	218
2.30498	204
2.30476	214
2.30453	212
2.30431	212
2.30408	226
2.30386	218
2.30364	218
2.30341	218
2.30319	214
2.30296	214
2.30274	206
2.30252	238
2.30229	220
2.30207	212
2.30185	200
2.30162	196
2.3014	214
2.30118	202
2.30095	216
2.30073	190
2.3005	200
2.30028	200
2.30006	216
2.29983	220
2.29961	194
2.29939	210
2.29917	204
2.29894	198
2.29872	214
2.2985	210
2.29827	208
2.29805	222
2.29783	208
2.2976	188
2.29738	200
2.29716	216
2.29694	214
2.29671	208
2.29649	210
2.29627	196
2.29605	216
2.29582	206
2.2956	182
2.29538	202
2.29516	214
2.29493	208
2.29471	228
2.29449	204
2.29427	194
2.29405	206
2.29382	212
2.2936	210
2.29338	204
2.29316	192
2.29294	190
2.29271	210
2.29249	192
2.29227	206
2.29205	184
2.29183	202
2.29161	206
2.29138	206
2.29116	208
2.29094	188
2.29072	190
2.2905	196
2.29028	202
2.29006	208
2.28983	196
2.28961	186
2.28939	192
2.28917	176
2.28895	190
2.28873	198
2.28851	186
2.28829	186
2.28807	192
2.28785	200
2.28762	188
2.2874	186
2.28718	200
2.28696	190
2.28674	196
2.28652	190
2.2863	180
2.28608	192
2.28586	210
2.28564	200
2.28542	180
2.2852	200
2.28498	192
2.28476	182
2.28454	190
2.28432	192
2.2841	186
2.28388	184
2.28366	186
2.28344	190
2.28322	180
2.283	180
2.28278	174
2.28256	194
2.28234	200
2.28212	190
2.2819	184
2.28168	176
2.28146	186
2.28124	176
2.28102	182
2.2808	190
2.28058	190
2.28036	198
2.28014	172
2.27992	186
2.27971	186
2.27949	190
2.27927	192
2.27905	170
2.27883	194
2.27861	192
2.27839	212
2.27817	186
2.27795	202
2.27773	154
2.27752	188
2.2773	184
2.27708	168
2.27686	194
2.27664	188
2.27642	164
2.2762	170
2.27599	192
2.27577	170
2.27555	170
2.27533	184
2.27511	174
2.27489	178
2.27468	170
2.27446	172
2.27424	164
2.27402	174
2.2738	182
2.27359	180
2.27337	172
2.27315	180
2.27293	196
2.27272	174
2.2725	182
2.27228	186
2.27206	168
2.27184	176
2.27163	202
2.27141	182
2.27119	180
2.27097	176
2.27076	184
2.27054	186
2.27032	180
2.27011	174
2.26989	180
2.26967	170
2.26945	178
2.26924	168
2.26902	168
2.2688	166
2.26859	170
2.26837	160
2.26815	184
2.26794	166
2.26772	180
2.2675	148
2.26728	176
2.26707	172
2.26685	184
2.26663	186
2.26642	164
2.2662	180
2.26599	162
2.26577	164
2.26555	172
2.26534	156
2.26512	158
2.2649	160
2.26469	156
2.26447	152
2.26426	176
2.26404	178
2.26382	170
2.26361	166
2.26339	168
2.26318	158
2.26296	162
2.26274	177.941
2.26253	175.851
2.26231	163.976
2.2621	154.473
2.26188	167.931
2.26167	165.771
2.26145	152.08
2.26124	165.34
2.26102	165.42
2.2608	167.769
2.26059	170.035
2.26037	152.76
2.26016	172.155
2.25994	168.032
2.25973	165.528
2.25951	159.272
2.2593	156.88
2.25908	161.569
2.25887	164.232
2.25865	160.757
2.25844	164.267
2.25822	154.728
2.25801	167.398
2.25779	162.784
2.25758	157.268
2.25736	165.01
2.25715	173.641
2.25693	151.948
2.25672	162.759
2.25651	163.417
2.25629	163.313
2.25608	154.869
2.25586	162.689
2.25565	164.046
2.25543	169.45
2.25522	160.509
2.25501	154.35
2.25479	158.503
2.25458	155.651
2.25436	154.795
2.25415	165.255
2.25393	151.332
2.25372	158.862
2.25351	157.121
2.25329	161.767
2.25308	156.074
2.25287	152.351
2.25265	164.549
2.25244	159.014
2.25222	158.458
2.25201	153.017
2.2518	148.397
2.25158	160.048
2.25137	160.468
2.25116	150.248
2.25094	155.393
2.25073	165.97
2.25052	153.44
2.2503	154.506
2.25009	161.507
2.24988	158.442
2.24966	144.325
2.24945	153.684
2.24924	158.73
2.24902	158.075
2.24881	154.643
2.2486	160.745
2.24839	153.441
2.24817	159.957
2.24796	153.459
2.24775	150.955
2.24753	153.053
2.24732	161.287
2.24711	149.217
2.2469	148.481
2.24668	154.682
2.24647	169.393
2.24626	148.95
2.24605	146.982
2.24583	153.916
2.24562	158.787
2.24541	163.566
2.2452	145.198
2.24499	146.142
2.24477	149.724
2.24456	148.838
2.24435	152.453
2.24414	142.486
2.24392	147.499
2.24371	146.631
2.2435	154.273
2.24329	149.36
2.24308	148.655
2.24286	158.643
2.24265	137.208
2.24244	142.333
2.24223	131.039
2.24202	143.95
2.24181	144.458
2.2416	155.86
2.24139	148
2.24117	146
2.24096	156
2.24075	162
2.24054	154
2.24032	140
2.24011	142
2.2399	136
2.23969	148
2.23948	152
2.23926	156
2.23905	150
2.23884	144
2.23863	154
2.23842	158
2.2382	140
2.23799	152
2.23778	152
2.23757	128
2.23736	146
2.23715	152
2.23694	136
2.23672	152
2.23651	144
2.2363	148
2.23609	142
2.23588	156
2.23567	142
2.23546	136
2.23524	146
2.23503	146
2.23482	116
2.23461	136
2.2344	136
2.23419	138
2.23398	138
2.23377	142
2.23356	136
2.23335	156
2.23313	162
2.23292	140
2.23271	148
2.2325	148
2.23229	146
2.23208	146
2.23187	140
2.23166	134
2.23145	134
2.23124	140
2.23103	144
2.23082	134
2.23061	150
2.2304	138
2.23019	138
2.22998	140
2.22977	144
2.22956	130
2.22935	160
2.22914	146
2.22893	138
2.22872	142
2.22851	138
2.2283	132
2.22809	146
2.22788	132
2.22767	140
2.22746	142
2.22725	140
2.22704	146
2.22683	136
2.22662	146
2.22641	146
2.2262	148
2.22599	144
2.22578	144
2.22557	132
2.22536	134
2.22516	138
2.22495	128
2.22474	134
2.22453	122
2.22432	130
2.22411	138
2.2239	136
2.22369	142
2.22348	136
2.22327	140
2.22307	148
2.22286	148
2.22265	138
2.22244	142
2.22223	128
2.22202	122
2.22181	142
2.2216	144
2.2214	128
2.22119	138
2.22098	136
2.22077	142
2.22056	142
2.22035	136
2.22015	140
2.21994	150
2.21973	134
2.21952	126
2.21931	130
2.21911	144
2.2189	132
2.21869	118
2.21848	140
2.21827	124
2.21807	144
2.21786	130
2.21765	144
2.21744	128
2.21723	132
2.21703	144
2.21682	126
2.21661	134
2.2164	124
2.2162	134
2.21599	134
2.21578	128
2.21557	136
2.21537	130
2.21516	136
2.21495	142
2.21475	148
2.21454	132
2.21433	128
2.21412	144
2.21392	142
2.21371	120
2.2135	130
2.2133	130
2.21309	140
2.21288	126
2.21268	114
2.21247	128
2.21226	136
2.21206	140
2.21185	130
2.21164	146
2.21144	128
2.21123	132
2.21102	144
2.21082	124
2.21061	132
2.2104	130
2.2102	142
2.20999	126
2.20979	122
2.20958	142
2.20937	142
2.20917	136
2.20896	134
2.20876	126
2.20855	142
2.20834	136
2.20814	126
2.20793	128
2.20773	134
2.20752	132
2.20731	136
2.20711	130
2.2069	140
2.2067	150
2.20649	136
2.20629	136
2.20608	136
2.20588	126
2.20567	128
2.20546	124
2.20526	126
2.20505	144
2.20485	136
2.20464	122
2.20444	124
2.20423	128
2.20403	132
2.20382	136
2.20362	134
2.20341	134
2.20321	136
2.203	132
2.2028	136
2.20259	146
2.20239	130
2.20218	120
2.20198	144
2.20177	124
2.20157	142
2.20137	128
2.20116	120
2.20096	126
2.20075	128
2.20055	132
2.20034	126
2.20014	144
2.19993	126
2.19973	146
2.19953	122
2.19932	128
2.19912	128
2.19891	114
2.19871	132
2.19851	140
2.1983	108
2.1981	128
2.19789	128
2.19769	138
2.19749	116
2.19728	136
2.19708	132
2.19687	116
2.19667	122
2.19647	126
2.19626	134
2.19606	124
2.19586	138
2.19565	144
2.19545	138
2.19525	124
2.19504	122
2.19484	126
2.19464	144
2.19443	138
2.19423	124
2.19403	132
2.19382	146
2.19362	114
2.19342	136
2.19321	118
2.19301	124
2.19281	130
2.19261	118
2.1924	136
2.1922	130
2.192	116
2.19179	122
2.19159	130
2.19139	124
2.19119	108
2.19098	134
2.19078	122
2.19058	122
2.19038	132
2.19017	126
2.18997	134
2.18977	120
2.18957	138
2.18936	136
2.18916	132
2.18896	118
2.18876	114
2.18856	124
2.18835	128
2.18815	122
2.18795	112
2.18775	120
2.18755	120
2.18734	120
2.18714	132
2.18694	124
2.18674	130
2.18654	120
2.18634	130
2.18613	134
2.18593	124
2.18573	128
2.18553	124
2.18533	138
2.18513	118
2.18493	114
2.18472	136
2.18452	130
2.18432	118
2.18412	142
2.18392	138
2.18372	116
2.18352	138
2.18332	120
2.18311	116
2.18291	132
2.18271	122
2.18251	132
2.18231	124
2.18211	128
2.18191	134
2.18171	136
2.18151	118
2.18131	122
2.18111	132
2.18091	128
2.1807	140
2.1805	114
2.1803	118
2.1801	116
2.1799	126
2.1797	108
2.1795	120
2.1793	120
2.1791	116
2.1789	120
2.1787	140
2.1785	128
2.1783	130
2.1781	122
2.1779	130
2.1777	118
2.1775	130
2.1773	120
2.1771	134
2.1769	118
2.1767	122
2.1765	126
2.1763	120
2.1761	132
2.1759	126
2.1757	134
2.1755	110
2.1753	132
2.1751	126
2.1749	142
2.17471	116
2.17451	108
2.17431	136
2.17411	124
2.17391	112
2.17371	120
2.17351	140
2.17331	136
2.17311	130
2.17291	120
2.17271	136
2.17251	132
2.17232	116
2.17212	120
2.17192	142
2.17172	124
2.17152	112
2.17132	150
2.17112	124
2.17092	124
2.17072	102
2.17053	132
2.17033	134
2.17013	130
2.16993	132
2.16973	126
2.16953	132
2.16934	130
2.16914	124
2.16894	134
2.16874	128
2.16854	118
2.16834	126
2.16815	120
2.16795	114
2.16775	140
2.16755	122
2.16735	128
2.16716	122
2.16696	136
2.16676	142
2.16656	116
2.16636	132
2.16617	112
2.16597	118
2.16577	120
2.16557	126
2.16538	118
2.16518	126
2.16498	120
2.16478	124
2.16459	128
2.16439	136
2.16419	124
2.16399	132
2.1638	120
2.1636	130
2.1634	132
2.1632	108
2.16301	122
2.16281	128
2.16261	132
2.16242	126
2.16222	124
2.16202	130
2.16182	130
2.16163	112
2.16143	114
2.16123	128
2.16104	124
2.16084	126
2.16064	114
2.16045	116
2.16025	124
2.16005	110
2.15986	122
2.15966	134
2.15946	116
2.15927	118
2.15907	116
2.15887	114
2.15868	122
2.15848	118
2.15829	134
2.15809	120
2.15789	134
2.1577	124
2.1575	122
2.1573	126
2.15711	124
2.15691	134
2.15672	132
2.15652	120
2.15632	124
2.15613	130
2.15593	128
2.15574	134
2.15554	116
2.15535	126
2.15515	116
2.15495	114
2.15476	114
2.15456	122
2.15437	126
2.15417	134
2.15398	120
2.15378	130
2.15359	116
2.15339	138
2.1532	122
2.153	124
2.1528	124
2.15261	126
2.15241	120
2.15222	124
2.15202	120
2.15183	124
2.15163	118
2.15144	122
2.15124	130
2.15105	124
2.15085	122
2.15066	124
2.15046	132
2.15027	124
2.15008	128
2.14988	122
2.14969	130
2.14949	136
2.1493	132
2.1491	130
2.14891	124
2.14871	136
2.14852	132
2.14832	114
2.14813	126
2.14794	116
2.14774	118
2.14755	128
2.14735	142
2.14716	120
2.14697	130
2.14677	114
2.14658	120
2.14638	126
2.14619	118
2.14599	130
2.1458	122
2.14561	124
2.14541	140
2.14522	120
2.14503	132
2.14483	128
2.14464	126
2.14444	132
2.14425	128
2.14406	136
2.14386	132
2.14367	114
2.14348	126
2.14328	138
2.14309	122
2.1429	128
2.1427	130
2.14251	124
2.14232	134
2.14212	128
2.14193	122
2.14174	124
2.14154	122
2.14135	132
2.14116	132
2.14097	134
2.14077	128
2.14058	108
2.14039	132
2.14019	130
2.14	130
2.13981	124
2.13962	128
2.13942	126
2.13923	110
2.13904	120
2.13884	118
2.13865	120
2.13846	132
2.13827	136
2.13808	124
2.13788	130
2.13769	140
2.1375	126
2.13731	130
2.13711	124
2.13692	116
2.13673	122
2.13654	134
2.13634	120
2.13615	128
2.13596	124
2.13577	118
2.13558	122
2.13538	112
2.13519	116
2.135	132
2.13481	138
2.13462	124
2.13443	114
2.13423	122
2.13404	130
2.13385	126
2.13366	108
2.13347	122
2.13328	130
2.13308	128
2.13289	134
2.1327	122
2.13251	126
2.13232	128
2.13213	116
2.13194	138
2.13175	128
2.13155	128
2.13136	110
2.13117	114
2.13098	122
2.13079	126
2.1306	136
2.13041	126
2.13022	120
2.13003	130
2.12983	122
2.12964	120
2.12945	142
2.12926	128
2.12907	130
2.12888	124
2.12869	130
2.1285	110
2.12831	130
2.12812	126
2.12793	128
2.12774	124
2.12755	124
2.12736	128
2.12717	126
2.12698	136
2.12679	134
2.1266	130
2.12641	122
2.12621	116
2.12602	132
2.12583	136
2.12564	122
2.12545	118
2.12526	114
2.12507	124
2.12488	118
2.12469	120
2.1245	130
2.12432	136
2.12413	120
2.12394	126
2.12375	116
2.12356	130
2.12337	138
2.12318	148
2.12299	136
2.1228	136
2.12261	108
2.12242	128
2.12223	126
2.12204	116
2.12185	116
2.12166	122
2.12147	132
2.12128	136
2.12109	132
2.1209	110
2.12071	138
2.12053	126
2.12034	138
2.12015	122
2.11996	134
2.11977	136
2.11958	118
2.11939	114
2.1192	116
2.11901	138
2.11883	124
2.11864	130
2.11845	126
2.11826	132
2.11807	132
2.11788	136
2.11769	118
2.1175	132
2.11732	132
2.11713	132
2.11694	132
2.11675	120
2.11656	116
2.11637	146
2.11619	128
2.116	134
2.11581	136
2.11562	132
2.11543	134
2.11524	114
2.11506	118
2.11487	142
2.11468	108
2.11449	132
2.1143	120
2.11412	124
2.11393	140
2.11374	124
2.11355	128
2.11337	130
2.11318	126
2.11299	124
2.1128	116
2.11261	134
2.11243	124
2.11224	136
2.11205	136
2.11186	130
2.11168	122
2.11149	128
2.1113	124
2.11111	130
2.11093	126
2.11074	132
2.11055	130
2.11037	138
2.11018	132
2.10999	114
2.1098	122
2.10962	124
2.10943	136
2.10924	130
2.10906	132
2.10887	122
2.10868	130
2.1085	126
2.10831	126
2.10812	142
2.10793	106
2.10775	124
2.10756	126
2.10738	120
2.10719	122
2.107	126
2.10682	132
2.10663	138
2.10644	134
2.10626	134
2.10607	122
2.10588	136
2.1057	132
2.10551	126
2.10532	140
2.10514	132
2.10495	130
2.10477	144
2.10458	134
2.10439	122
2.10421	122
2.10402	130
2.10384	140
2.10365	130
2.10346	124
2.10328	130
2.10309	128
2.10291	130
2.10272	124
2.10253	132
2.10235	130
2.10216	122
2.10198	126
2.10179	114
2.10161	122
2.10142	116
2.10123	116
2.10105	126
2.10086	116
2.10068	122
2.10049	130
2.10031	122
2.10012	130
2.09994	124
2.09975	128
2.09957	128
2.09938	126
2.0992	118
2.09901	122
2.09883	140
2.09864	138
2.09846	118
2.09827	120
2.09809	122
2.0979	120
2.09772	112
2.09753	114
2.09735	136
2.09716	126
2.09698	130
2.09679	124
2.09661	142
2.09642	124
2.09624	136
2.09605	130
2.09587	136
2.09569	126
2.0955	124
2.09532	126
2.09513	128
2.09495	116
2.09476	128
2.09458	130
2.0944	140
2.09421	116
2.09403	118
2.09384	138
2.09366	130
2.09347	138
2.09329	132
2.09311	134
2.09292	118
2.09274	128
2.09256	120
2.09237	130
2.09219	120
2.092	128
2.09182	118
2.09164	142
2.09145	138
2.09127	136
2.09109	134
2.0909	118
2.09072	122
2.09053	134
2.09035	134
2.09017	126
2.08998	134
2.0898	126
2.08962	130
2.08943	118
2.08925	128
2.08907	142
2.08888	126
2.0887	142
2.08852	136
2.08834	132
2.08815	138
2.08797	126
2.08779	124
2.0876	130
2.08742	132
2.08724	126
2.08705	128
2.08687	120
2.08669	134
2.08651	132
2.08632	132
2.08614	134
2.08596	132
2.08578	134
2.08559	126
2.08541	132
2.08523	138
2.08504	130
2.08486	124
2.08468	122
2.0845	126
2.08432	144
2.08413	128
2.08395	140
2.08377	126
2.08359	138
2.0834	126
2.08322	142
2.08304	126
2.08286	126
2.08268	142
2.08249	144
2.08231	122
2.08213	128
2.08195	130
2.08177	142
2.08158	124
2.0814	120
2.08122	128
2.08104	126
2.08086	120
2.08068	138
2.08049	130
2.08031	138
2.08013	128
2.07995	143.929
2.07977	133.889
2.07959	122.23
2.0794	129.898
2.07922	125.864
2.07904	143.245
2.07886	124.491
2.07868	132.131
2.0785	124.333
2.07832	122.559
2.07814	119.249
2.07795	133.34
2.07777	115.908
2.07759	136.727
2.07741	146.792
2.07723	132.464
2.07705	126.234
2.07687	136.647
2.07669	133.402
2.07651	122.872
2.07632	133.15
2.07614	139.27
2.07596	122.223
2.07578	127.456
2.0756	131.055
2.07542	139.894
2.07524	124.205
2.07506	125.078
2.07488	142.835
2.0747	140.478
2.07452	126.414
2.07434	131.568
2.07416	131.121
2.07398	139.543
2.0738	128.296
2.07362	131.523
2.07344	119.653
2.07325	129.34
2.07307	126.825
2.07289	122.342
2.07271	121.172
2.07253	123.374
2.07235	128.333
2.07217	117.761
2.07199	129.789
2.07181	126.254
2.07163	123.805
2.07145	122.794
2.07127	119.899
2.07109	134.776
2.07091	137.484
2.07073	127.246
2.07055	129.808
2.07037	130.152
2.07019	132.589
2.07001	121.619
2.06984	114.8
2.06966	135.951
2.06948	125.903
2.0693	122.316
2.06912	124.984
2.06894	129.152
2.06876	127.903
2.06858	124
2.0684	121.794
2.06822	128.294
2.06804	128.061
2.06786	120.844
2.06768	126.743
2.0675	134.066
2.06732	130.697
2.06714	108.209
2.06696	124.77
2.06679	126.808
2.06661	123.461
2.06643	127.945
2.06625	122.64
2.06607	123.806
2.06589	131.199
2.06571	122.366
2.06553	131.624
2.06535	136.402
2.06518	124.103
2.065	124.912
2.06482	137.593
2.06464	136.212
2.06446	131.076
2.06428	128.083
2.0641	122.666
2.06392	121.265
2.06375	128.267
2.06357	151.429
2.06339	130.403
2.06321	125.682
2.06303	122.827
2.06285	124.816
2.06267	120.533
2.0625	125.064
2.06232	138.152
2.06214	137.95
2.06196	118.866
2.06178	128.058
2.06176	130
2.06158	128
2.0614	140
2.06122	128
2.06104	126
2.06086	124
2.06069	142
2.06051	138
2.06033	124
2.06015	118
2.05997	134
2.05979	132
2.05961	128
2.05944	134
2.05926	124
2.05908	136
2.0589	128
2.05872	140
2.05854	124
2.05836	140
2.05819	132
2.05801	124
2.05783	142
2.05765	126
2.05747	118
2.05729	140
2.05712	128
2.05694	122
2.05676	142
2.05658	126
2.0564	122
2.05623	142
2.05605	128
2.05587	136
2.05569	138
2.05551	140
2.05534	128
2.05516	128
2.05498	132
2.0548	134
2.05463	124
2.05445	126
2.05427	130
2.05409	122
2.05392	126
2.05374	108
2.05356	120
2.05338	118
2.05321	130
2.05303	118
2.05285	130
2.05267	130
2.0525	132
2.05232	118
2.05214	126
2.05196	128
2.05179	124
2.05161	122
2.05143	126
2.05126	132
2.05108	124
2.0509	134
2.05072	130
2.05055	124
2.05037	126
2.05019	134
2.05002	124
2.04984	136
2.04966	126
2.04949	134
2.04931	130
2.04913	126
2.04896	122
2.04878	132
2.0486	126
2.04843	120
2.04825	136
2.04807	128
2.0479	124
2.04772	116
2.04754	132
2.04737	130
2.04719	140
2.04701	134
2.04684	136
2.04666	126
2.04649	110
2.04631	144
2.04613	122
2.04596	118
2.04578	132
2.04561	122
2.04543	128
2.04525	122
2.04508	120
2.0449	136
2.04473	136
2.04455	114
2.04437	134
2.0442	122
2.04402	116
2.04385	120
2.04367	128
2.04349	128
2.04332	128
2.04314	132
2.04297	120
2.04279	126
2.04262	140
2.04244	132
2.04227	128
2.04209	124
2.04191	136
2.04174	138
2.04156	132
2.04139	124
2.04121	128
2.04104	122
2.04086	140
2.04069	124
2.04051	126
2.04034	132
2.04016	142
2.03999	136
2.03981	116
2.03964	124
2.03946	126
2.03929	132
2.03911	126
2.03894	134
2.03876	144
2.03859	124
2.03841	126
2.03824	136
2.03806	134
2.03789	122
2.03771	122
2.03754	130
2.03737	142
2.03719	134
2.03702	124
2.03684	144
2.03667	140
2.03649	128
2.03632	124
2.03614	120
2.03597	120
2.0358	142
2.03562	126
2.03545	126
2.03527	128
2.0351	118
2.03492	130
2.03475	130
2.03458	124
2.0344	138
2.03423	132
2.03405	134
2.03388	138
2.03371	116
2.03353	132
2.03336	126
2.03318	122
2.03301	126
2.03284	144
2.03266	138
2.03249	146
2.03232	134
2.03214	138
2.03197	126
2.03179	122
2.03162	126
2.03145	126
2.03127	134
2.0311	130
2.03093	128
2.03075	120
2.03058	138
2.03041	128
2.03023	142
2.03006	126
2.02989	124
2.02971	132
2.02954	134
2.02937	132
2.02919	142
2.02902	126
2.02885	142
2.02868	124
2.0285	128
2.02833	144
2.02816	120
2.02798	134
2.02781	114
2.02764	132
2.02747	126
2.02729	124
2.02712	126
2.02695	120
2.02677	140
2.0266	140
2.02643	136
2.02626	126
2.02608	128
2.02591	140
2.02574	132
2.02557	134
2.02539	126
2.02522	126
2.02505	130
2.02488	132
2.0247	122
2.02453	132
2.02436	130
2.02419	138
2.02402	138
2.02384	148
2.02367	132
2.0235	138
2.02333	148
2.02315	144
2.02298	126
2.02281	128
2.02264	132
2.02247	126
2.0223	140
2.02212	130
2.02195	130
2.02178	136
2.02161	134
2.02144	122
2.02126	122
2.02109	138
2.02092	132
2.02075	118
2.02058	142
2.02041	136
2.02024	134
2.02006	120
2.01989	138
2.01972	126
2.01955	140
2.01938	140
2.01921	136
2.01904	132
2.01886	126
2.01869	150
2.01852	134
2.01835	124
2.01818	126
2.01801	128
2.01784	122
2.01767	138
2.01749	128
2.01732	136
2.01715	130
2.01698	136
2.01681	120
2.01664	134
2.01647	152
2.0163	140
2.01613	132
2.01596	130
2.01579	152
2.01562	126
2.01544	138
2.01527	132
2.0151	136
2.01493	148
2.01476	132
2.01459	146
2.01442	128
2.01425	116
2.01408	144
2.01391	128
2.01374	140
2.01357	126
2.0134	132
2.01323	128
2.01306	150
2.01289	126
2.01272	130
2.01255	150
2.01238	134
2.01221	136
2.01204	120
2.01187	140
2.0117	140
2.01153	120
2.01136	144
2.01119	150
2.01102	136
2.01085	140
2.01068	120
2.01051	132
2.01034	142
2.01017	146
2.01	138
2.00983	132
2.00966	142
2.00949	144
2.00932	132
2.00915	138
2.00898	138
2.00881	138
2.00864	122
2.00847	144
2.0083	136
2.00814	122
2.00797	146
2.0078	148
2.00763	136
2.00746	136
2.00729	140
2.00712	144
2.00695	138
2.00678	132
2.00661	146
2.00644	142
2.00627	138
2.00611	132
2.00594	134
2.00577	148
2.0056	128
2.00543	138
2.00526	140
2.00509	130
2.00492	136
2.00475	132
2.00459	130
2.00442	136
2.00425	146
2.00408	140
2.00391	142
2.00374	148
2.00357	142
2.00341	136
2.00324	152
2.00307	138
2.0029	138
2.00273	136
2.00256	142
2.0024	142
2.00223	144
2.00206	128
2.00189	142
2.00172	128
2.00155	128
2.00139	146
2.00122	138
2.00105	144
2.00088	132
2.00071	152
2.00055	138
2.00038	136
2.00021	130
2.00004	144
1.99987	146
1.99971	124
1.99954	156
1.99937	148
1.9992	144
1.99903	144
1.99887	142
1.9987	142
1.99853	136
1.99836	138
1.9982	138
1.99803	138
1.99786	144
1.99769	134
1.99753	132
1.99736	138
1.99719	158
1.99702	162
1.99686	152
1.99669	150
1.99652	144
1.99635	150
1.99619	138
1.99602	148
1.99585	140
1.99569	150
1.99552	134
1.99535	152
1.99518	144
1.99502	150
1.99485	130
1.99468	148
1.99452	142
1.99435	132
1.99418	136
1.99402	144
1.99385	142
1.99368	144
1.99352	144
1.99335	144
1.99318	144
1.99302	144
1.99285	156
1.99268	150
1.99252	148
1.99235	148
1.99218	128
1.99202	134
1.99185	136
1.99168	158
1.99152	130
1.99135	136
1.99118	140
1.99102	136
1.99085	142
1.99069	140
1.99052	154
1.99035	132
1.99019	148
1.99002	152
1.98985	156
1.98969	150
1.98952	154
1.98936	148
1.98919	140
1.98902	144
1.98886	138
1.98869	152
1.98853	132
1.98836	144
1.9882	150
1.98803	142
1.98786	140
1.9877	150
1.98753	146
1.98737	146
1.9872	150
1.98704	150
1.98687	154
1.9867	146
1.98654	138
1.98637	146
1.98621	132
1.98604	152
1.98588	144
1.98571	172
1.98555	142
1.98538	136
1.98522	140
1.98505	164
1.98488	138
1.98472	148
1.98455	146
1.98439	152
1.98422	146
1.98406	138
1.98389	156
1.98373	142
1.98356	162
1.9834	160
1.98323	158
1.98307	148
1.9829	158
1.98274	144
1.98257	152
1.98241	162
1.98224	154
1.98208	142
1.98192	142
1.98175	142
1.98159	138
1.98142	142
1.98126	160
1.98109	124
1.98093	152
1.98076	144
1.9806	160
1.98043	156
1.98027	132
1.98011	152
1.97994	144
1.97978	138
1.97961	148
1.97945	146
1.97928	156
1.97912	140
1.97896	154
1.97879	156
1.97863	148
1.97846	158
1.9783	146
1.97813	144
1.97797	164
1.97781	160
1.97764	146
1.97748	134
1.97732	150
1.97715	146
1.97699	144
1.97682	150
1.97666	154
1.9765	158
1.97633	152
1.97617	146
1.976	148
1.97584	154
1.97568	146
1.97551	166
1.97535	154
1.97519	152
1.97502	154
1.97486	160
1.9747	156
1.97453	146
1.97437	142
1.97421	154
1.97404	142
1.97388	160
1.97372	142
1.97355	150
1.97339	148
1.97323	160
1.97306	158
1.9729	144
1.97274	154
1.97257	148
1.97241	158
1.97225	156
1.97209	152
1.97192	146
1.97176	162
1.9716	168
1.97143	146
1.97127	146
1.97111	140
1.97095	142
1.97078	140
1.97062	150
1.97046	156
1.97029	144
1.97013	146
1.96997	142
1.96981	176
1.96964	158
1.96948	144
1.96932	168
1.96916	148
1.96899	160
1.96883	156
1.96867	148
1.96851	152
1.96834	152
1.96818	168
1.96802	162
1.96786	168
1.9677	142
1.96753	138
1.96737	152
1.96721	150
1.96705	148
1.96688	152
1.96672	160
1.96656	158
1.9664	142
1.96624	156
1.96607	170
1.96591	150
1.96575	144
1.96559	154
1.96543	144
1.96527	160
1.9651	146
1.96494	158
1.96478	146
1.96462	156
1.96446	150
1.9643	146
1.96413	162
1.96397	158
1.96381	170
1.96365	148
1.96349	154
1.96333	150
1.96316	140
1.963	162
1.96284	156
1.96268	148
1.96252	148
1.96236	154
1.9622	154
1.96204	156
1.96187	146
1.96171	162
1.96155	152
1.96139	154
1.96123	172
1.96107	164
1.96091	142
1.96075	168
1.96059	148
1.96042	148
1.96026	166
1.9601	156
1.95994	134
1.95978	160
1.95962	156
1.95946	162
1.9593	162
1.95914	144
1.95898	162
1.95882	150
1.95866	148
1.9585	160
1.95834	172
1.95817	164
1.95801	154
1.95785	146
1.95769	156
1.95753	150
1.95737	166
1.95721	142
1.95705	168
1.95689	158
1.95673	158
1.95657	158
1.95641	156
1.95625	144
1.95609	158
1.95593	168
1.95577	160
1.95561	150
1.95545	162
1.95529	162
1.95513	150
1.95497	144
1.95481	156
1.95465	176
1.95449	146
1.95433	158
1.95417	146
1.95401	158
1.95385	156
1.95369	148
1.95353	158
1.95337	156
1.95321	152
1.95305	168
1.95289	150
1.95273	148
1.95257	158
1.95241	148
1.95225	156
1.95209	180
1.95193	162
1.95178	166
1.95162	250
1.95146	184
1.9513	154
1.95114	162
1.95098	162
1.95082	184
1.95066	160
1.9505	156
1.95034	160
1.95018	188
1.95002	260
1.94986	230
1.9497	176
1.94955	174
1.94939	138
1.94923	152
1.94907	158
1.94891	156
1.94875	148
1.94859	152
1.94843	150
1.94827	164
1.94812	148
1.94796	160
1.9478	146
1.94764	152
1.94748	166
1.94732	162
1.94716	162
1.947	148
1.94685	166
1.94669	154
1.94653	154
1.94637	138
1.94621	152
1.94605	154
1.9459	160
1.94574	152
1.94558	144
1.94542	156
1.94526	164
1.9451	144
1.94495	160
1.94479	170
1.94463	160
1.94447	160
1.94431	168
1.94415	168
1.944	148
1.94384	158
1.94368	160
1.94352	150
1.94336	162
1.94321	160
1.94305	148
1.94289	150
1.94273	156
1.94257	146
1.94242	158
1.94226	168
1.9421	146
1.94194	146
1.94179	140
1.94163	166
1.94147	166
1.94131	166
1.94116	144
1.941	160
1.94084	160
1.94068	164
1.94053	148
1.94037	168
1.94021	164
1.94005	174
1.9399	140
1.93974	172
1.93958	158
1.93942	136
1.93927	156
1.93911	156
1.93895	168
1.93879	140
1.93864	152
1.93848	176
1.93832	150
1.93817	156
1.93801	156
1.93785	168
1.93769	166
1.93754	152
1.93738	164
1.93722	166
1.93707	158
1.93691	164
1.93675	178
1.9366	160
1.93644	160
1.93628	170
1.93613	160
1.93597	162
1.93581	152
1.93566	164
1.9355	156
1.93534	158
1.93519	160
1.93503	164
1.93487	164
1.93472	152
1.93456	146
1.9344	144
1.93425	160
1.93409	164
1.93394	144
1.93378	164
1.93362	164
1.93347	162
1.93331	170
1.93315	156
1.933	168
1.93284	178
1.93269	154
1.93253	148
1.93237	150
1.93222	156
1.93206	158
1.9319	148
1.93175	154
1.93159	142
1.93144	140
1.93128	156
1.93113	168
1.93097	146
1.93081	156
1.93066	168
1.9305	164
1.93035	144
1.93019	160
1.93003	172
1.92988	146
1.92972	150
1.92957	146
1.92941	150
1.92926	160
1.9291	148
1.92895	146
1.92879	166
1.92864	164
1.92848	156
1.92832	164
1.92817	160
1.92801	168
1.92786	160
1.9277	170
1.92755	160
1.92739	150
1.92724	176
1.92708	156
1.92693	148
1.92677	164
1.92662	178
1.92646	170
1.92631	238
1.92615	318
1.926	186
1.92584	152
1.92569	160
1.92553	160
1.92538	172
1.92522	158
1.92507	163.98
1.92491	169.969
1.92476	148.232
1.9246	158.184
1.92445	175.422
1.92429	152.788
1.92414	165.639
1.92398	160.077
1.92383	143.793
1.92367	156.465
1.92352	167.176
1.92337	173.092
1.92321	149.907
1.92306	164.707
1.9229	168.776
1.92275	150.849
1.92259	163.257
1.92244	154.94
1.92228	160.588
1.92213	149.459
1.92198	167.459
1.92182	165.86
1.92167	165.793
1.92151	151.496
1.92136	165.419
1.92121	151.839
1.92105	167.623
1.9209	160.394
1.92074	159.303
1.92059	156.02
1.92043	155.76
1.92028	162.846
1.92013	160.108
1.91997	161.409
1.91982	171.353
1.91966	155.794
1.91951	172.612
1.91936	168.166
1.9192	159.193
1.91905	152.04
1.9189	161.448
1.91874	164.957
1.91859	193.035
1.91843	240.172
1.91828	251.966
1.91813	184.676
1.91797	174.517
1.91782	166.813
1.91767	157.856
1.91751	166.607
1.91736	161.977
1.91721	163.572
1.91705	170.521
1.9169	165.407
1.91675	165.866
1.91659	163.973
1.91644	162.486
1.91629	169.835
1.91613	166.745
1.91598	162.276
1.91583	159.773
1.91567	159
1.91552	164.647
1.91537	166.702
1.91521	158.625
1.91506	157.492
1.91491	160.647
1.91475	163.941
1.9146	164.035
1.91445	162.389
1.9143	157.997
1.91414	162.659
1.91399	163.328
1.91384	161.342
1.91368	166.117
1.91353	165.857
1.91338	160.018
1.91323	164.496
1.91307	168.824
1.91292	160.446
1.91277	166.308
1.91261	168.222
1.91246	163.529
1.91231	161.945
1.91216	162.658
1.912	159.005
1.91185	162.444
1.9117	162.761
1.91155	166.941
1.91139	178.424
1.91124	174.178
1.91109	167.121
1.91094	173.92
1.91078	173.172
1.91063	167.207
1.91048	163.917
1.91033	161.245
1.91017	164.444
1.91002	169.279
1.90987	166.604
1.90972	165.766
1.90957	166.043
1.90946	158
1.90931	152
1.90916	176
1.909	166
1.90885	174
1.9087	172
1.90855	174
1.90839	164
1.90824	182
1.90809	160
1.90793	176
1.90778	168
1.90763	164
1.90748	166
1.90732	166
1.90717	180
1.90702	170
1.90687	170
1.90671	166
1.90656	148
1.90641	158
1.90626	178
1.90611	172
1.90595	180
1.9058	178
1.90565	176
1.9055	180
1.90534	166
1.90519	158
1.90504	174
1.90489	160
1.90474	166
1.90458	166
1.90443	174
1.90428	152
1.90413	158
1.90398	158
1.90382	168
1.90367	162
1.90352	178
1.90337	166
1.90322	178
1.90306	178
1.90291	178
1.90276	178
1.90261	168
1.90246	162
1.90231	174
1.90215	160
1.902	168
1.90185	150
1.9017	170
1.90155	170
1.9014	160
1.90124	178
1.90109	174
1.90094	160
1.90079	172
1.90064	170
1.90049	172
1.90034	160
1.90018	170
1.90003	148
1.89988	176
1.89973	166
1.89958	154
1.89943	188
1.89928	170
1.89913	172
1.89898	168
1.89882	172
1.89867	172
1.89852	164
1.89837	172
1.89822	182
1.89807	166
1.89792	164
1.89777	168
1.89762	176
1.89747	166
1.89731	158
1.89716	162
1.89701	184
1.89686	172
1.89671	164
1.89656	176
1.89641	170
1.89626	166
1.89611	168
1.89596	182
1.89581	172
1.89566	178
1.89551	162
1.89536	184
1.89521	172
1.89506	160
1.8949	188
1.89475	166
1.8946	170
1.89445	168
1.8943	160
1.89415	148
1.894	164
1.89385	174
1.8937	162
1.89355	176
1.8934	182
1.89325	166
1.8931	176
1.89295	182
1.8928	176
1.89265	188
1.8925	182
1.89235	168
1.8922	184
1.89205	166
1.8919	184
1.89175	166
1.8916	160
1.89145	182
1.8913	166
1.89115	182
1.891	170
1.89085	162
1.8907	164
1.89055	160
1.8904	172
1.89025	180
1.8901	166
1.88995	166
1.88981	176
1.88966	174
1.88951	168
1.88936	160
1.88921	176
1.88906	166
1.88891	176
1.88876	166
1.88861	164
1.88846	182
1.88831	162
1.88816	178
1.88801	162
1.88786	154
1.88771	170
1.88756	166
1.88742	166
1.88727	164
1.88712	170
1.88697	178
1.88682	162
1.88667	176
1.88652	186
1.88637	170
1.88622	172
1.88607	168
1.88592	172
1.88578	176
1.88563	178
1.88548	162
1.88533	158
1.88518	194
1.88503	178
1.88488	184
1.88473	174
1.88459	182
1.88444	180
1.88429	158
1.88414	164
1.88399	174
1.88384	186
1.88369	168
1.88355	192
1.8834	178
1.88325	186
1.8831	172
1.88295	170
1.8828	166
1.88265	172
1.88251	174
1.88236	184
1.88221	174
1.88206	164
1.88191	160
1.88177	172
1.88162	162
1.88147	166
1.88132	152
1.88117	172
1.88102	162
1.88088	158
1.88073	172
1.88058	184
1.88043	168
1.88028	160
1.88014	172
1.87999	190
1.87984	162
1.87969	170
1.87954	186
1.8794	178
1.87925	174
1.8791	190
1.87895	176
1.87881	160
1.87866	164
1.87851	190
1.87836	176
1.87821	170
1.87807	172
1.87792	170
1.87777	188
1.87762	170
1.87748	182
1.87733	178
1.87718	186
1.87703	162
1.87689	168
1.87674	156
1.87659	182
1.87645	186
1.8763	166
1.87615	172
1.876	168
1.87586	166
1.87571	162
1.87556	166
1.87541	164
1.87527	168
1.87512	178
1.87497	178
1.87483	170
1.87468	158
1.87453	168
1.87438	164
1.87424	178
1.87409	168
1.87394	178
1.8738	168
1.87365	174
1.8735	180
1.87336	172
1.87321	166
1.87306	168
1.87292	160
1.87277	162
1.87262	176
1.87248	180
1.87233	184
1.87218	156
1.87204	162
1.87189	174
1.87174	166
1.8716	186
1.87145	168
1.8713	164
1.87116	160
1.87101	162
1.87086	180
1.87072	174
1.87057	176
1.87042	184
1.87028	178
1.87013	174
1.86999	168
1.86984	164
1.86969	168
1.86955	176
1.8694	152
1.86926	160
1.86911	178
1.86896	172
1.86882	184
1.86867	168
1.86852	184
1.86838	166
1.86823	184
1.86809	172
1.86794	176
1.8678	174
1.86765	168
1.8675	182
1.86736	184
1.86721	186
1.86707	176
1.86692	166
1.86677	180
1.86663	160
1.86648	160
1.86634	184
1.86619	166
1.86605	184
1.8659	156
1.86575	184
1.86561	180
1.86546	166
1.86532	180
1.86517	180
1.86503	176
1.86488	160
1.86474	168
1.86459	178
1.86445	168
1.8643	158
1.86416	182
1.86401	170
1.86386	164
1.86372	166
1.86357	176
1.86343	158
1.86328	162
1.86314	180
1.86299	148
1.86285	178
1.8627	170
1.86256	178
1.86241	164
1.86227	174
1.86212	178
1.86198	162
1.86183	176
1.86169	176
1.86154	172
1.8614	182
1.86125	166
1.86111	190
1.86096	170
1.86082	166
1.86068	174
1.86053	172
1.86039	172
1.86024	162
1.8601	188
1.85995	168
1.85981	172
1.85966	178
1.85952	180
1.85937	188
1.85923	168
1.85908	166
1.85894	168
1.8588	166
1.85865	160
1.85851	160
1.85836	188
1.85822	186
1.85807	180
1.85793	170
1.85779	188
1.85764	178
1.8575	226
1.85735	388
1.85721	968
1.85706	984
1.85692	412
1.85678	236
1.85663	214
1.85649	204
1.85634	174
1.8562	190
1.85606	164
1.85591	172
1.85577	172
1.85562	176
1.85548	184
1.85534	168
1.85519	178
1.85505	182
1.85491	162
1.85476	166
1.85462	180
1.85447	162
1.85433	162
1.85419	166
1.85404	172
1.8539	172
1.85376	176
1.85361	174
1.85347	188
1.85333	168
1.85318	164
1.85304	174
1.8529	174
1.85275	172
1.85261	172
1.85247	168
1.85232	174
1.85218	184
1.85204	180
1.85189	168
1.85175	168
1.85161	158
1.85146	178
1.85132	158
1.85118	180
1.85103	184
1.85089	194
1.85075	174
1.8506	176
1.85046	166
1.85032	194
1.85017	184
1.85003	186
1.84989	174
1.84975	174
1.8496	168
1.84946	176
1.84932	162
1.84917	162
1.84903	168
1.84889	180
1.84875	176
1.8486	180
1.84846	168
1.84832	166
1.84818	176
1.84803	184
1.84789	164
1.84775	172
1.8476	178
1.84746	168
1.84732	160
1.84718	170
1.84703	168
1.84689	162
1.84675	160
1.84661	168
1.84646	176
1.84632	166
1.84618	178
1.84604	188
1.8459	178
1.84575	162
1.84561	172
1.84547	178
1.84533	174
1.84518	172
1.84504	168
1.8449	172
1.84476	166
1.84462	178
1.84447	186
1.84433	178
1.84419	182
1.84405	252
1.84391	296
1.84376	186
1.84362	174
1.84348	172
1.84334	172
1.8432	162
1.84305	152
1.84291	180
1.84277	154
1.84263	174
1.84249	184
1.84235	178
1.8422	184
1.84206	170
1.84192	170
1.84178	172
1.84164	162
1.8415	174
1.84135	170
1.84121	180
1.84107	168
1.84093	172
1.84079	178
1.84065	168
1.84051	158
1.84036	164
1.84022	188
1.84008	180
1.83994	166
1.8398	186
1.83966	156
1.83952	190
1.83938	178
1.83923	172
1.83909	170
1.83895	166
1.83881	176
1.83867	170
1.83853	182
1.83839	174
1.83825	168
1.83811	172
1.83796	172
1.83782	162
1.83768	176
1.83754	172
1.8374	164
1.83726	176
1.83712	176
1.83698	168
1.83684	164
1.8367	168
1.83656	168
1.83642	166
1.83627	168
1.83613	156
1.83599	156
1.83585	174
1.83571	182
1.83557	166
1.83543	174
1.83529	154
1.83515	180
1.83501	192
1.83487	196
1.83473	192
1.83459	158
1.83445	166
1.83431	178
1.83417	156
1.83403	186
1.83389	158
1.83375	160
1.83361	156
1.83347	168
1.83333	162
1.83318	180
1.83304	164
1.8329	156
1.83276	166
1.83262	180
1.83248	176
1.83234	170
1.8322	170
1.83206	170
1.83192	174
1.83178	168
1.83164	164
1.8315	158
1.83136	170
1.83122	168
1.83108	178
1.83094	170
1.8308	170
1.83066	166
1.83053	180
1.83039	170
1.83025	172
1.83011	182
1.82997	162
1.82983	174
1.82969	164
1.82955	164
1.82941	168
1.82927	176
1.82913	156
1.82899	172
1.82885	166
1.82871	172
1.82857	182
1.82843	158
1.82829	164
1.82815	170
1.82801	170
1.82787	166
1.82773	164
1.8276	164
1.82746	174
1.82732	166
1.82718	170
1.82704	158
1.8269	164
1.82676	188
1.82662	152
1.82648	164
1.82634	168
1.8262	168
1.82606	182
1.82593	166
1.82579	168
1.82565	176
1.82551	182
1.82537	152
1.82523	168
1.82509	170
1.82495	198
1.82481	172
1.82468	178
1.82454	168
1.8244	160
1.82426	174
1.82412	162
1.82398	170
1.82384	190
1.8237	156
1.82357	162
1.82343	154
1.82329	186
1.82315	176
1.82301	168
1.82287	166
1.82273	166
1.8226	164
1.82246	176
1.82232	158
1.82218	180
1.82204	172
1.8219	184
1.82177	162
1.82163	170
1.82149	172
1.82135	170
1.82121	168
1.82107	166
1.82094	154
1.8208	178
1.82066	168
1.82052	166
1.82038	170
1.82025	170
1.82011	182
1.81997	168
1.81983	176
1.81969	170
1.81956	164
1.81942	164
1.81928	164
1.81914	164
1.819	174
1.81887	182
1.81873	154
1.81859	150
1.81845	168
1.81831	168
1.81818	154
1.81804	180
1.8179	184
1.81776	166
1.81763	162
1.81749	152
1.81735	166
1.81721	178
1.81708	172
1.81694	164
1.8168	174
1.81666	170
1.81653	180
1.81639	170
1.81625	184
1.81611	162
1.81598	160
1.81584	174
1.8157	148
1.81556	184
1.81543	184
1.81529	172
1.81515	168
1.81501	164
1.81488	158
1.81474	164
1.8146	174
1.81447	162
1.81433	178
1.81419	174
1.81405	174
1.81392	172
1.81378	158
1.81364	166
1.81351	170
1.81337	164
1.81323	174
1.8131	166
1.81296	172
1.81282	176
1.81268	178
1.81255	170
1.81241	166
1.81227	170
1.81214	160
1.812	178
1.81186	172
1.81173	170
1.81159	174
1.81145	158
1.81132	166
1.81118	168
1.81104	158
1.81091	172
1.81077	154
1.81063	174
1.8105	148
1.81036	172
1.81022	164
1.81009	154
1.80995	164
1.80982	172
1.80968	176
1.80954	176
1.80941	174
1.80927	154
1.80913	178
1.809	180
1.80886	166
1.80872	188
1.80859	168
1.80845	166
1.80832	164
1.80818	172
1.80804	160
1.80791	158
1.80777	178
1.80764	174
1.8075	162
1.80736	174
1.80723	170
1.80709	176
1.80696	170
1.80682	166
1.80668	148
1.80655	176
1.80641	180
1.80628	170
1.80614	156
1.80601	154
1.80587	164
1.80573	162
1.8056	172
1.80546	160
1.80533	170
1.80519	164
1.80506	162
1.80492	182
1.80478	160
1.80465	158
1.80451	150
1.80438	174
1.80424	182
1.80411	172
1.80397	158
1.80384	178
1.8037	162
1.80356	166
1.80343	158
1.80329	168
1.80316	174
1.80302	158
1.80289	180
1.80275	158
1.80262	154
1.80248	184
1.80235	160
1.80221	182
1.80208	160
1.80194	160
1.80181	180
1.80167	172
1.80154	172
1.8014	152
1.80127	176
1.80113	162
1.801	180
1.80086	162
1.80073	170
1.80059	158
1.80046	152
1.80032	160
1.80019	176
1.80005	156
1.79992	178
1.79978	174
1.79965	164
1.79951	164
1.79938	164
1.79924	160
1.79911	160
1.79897	156
1.79884	176
1.7987	164
1.79857	164
1.79844	152
1.7983	180
1.79817	178
1.79803	162
1.7979	168
1.79776	158
1.79763	162
1.79749	146
1.79736	174
1.79723	168
1.79709	160
1.79696	160
1.79682	176
1.79669	166
1.79655	160
1.79642	172
1.79629	172
1.79615	164
1.79602	172
1.79588	170
1.79575	170
1.79561	166
1.79548	154
1.79535	168
1.79521	164
1.79508	146
1.79494	162
1.79481	162
1.79468	162
1.79454	168
1.79441	154
1.79428	156
1.79414	164
1.79401	154
1.79387	152
1.79374	156
1.79361	160
1.79347	164
1.79334	164
1.7932	168
1.79307	166
1.79294	176
1.7928	150
1.79267	154
1.79254	158
1.7924	168
1.79227	158
1.79214	152.147
1.792	172.07
1.79187	156.601
1.79174	166.129
1.7916	154.296
1.79147	173.383
1.79133	156.671
1.7912	164.849
1.79107	161.875
1.79093	161.774
1.7908	166.776
1.79067	167.501
1.79053	160.715
1.7904	164.108
1.79027	160.86
1.79013	166.909
1.79	159.081
1.78987	167.402
1.78974	158.554
1.7896	167.564
1.78947	163.706
1.78934	146.742
1.7892	159.922
1.78907	168.235
1.78894	165.301
1.7888	167.399
1.78867	176.881
1.78854	165.331
1.7884	166.524
1.78827	157.697
1.78814	162.849
1.78801	168.871
1.78787	158.165
1.78774	172.675
1.78761	159.382
1.78747	160.982
1.78734	152.465
1.78721	155.875
1.78708	164.399
1.78694	166.897
1.78681	158.667
1.78668	168.158
1.78655	161.733
1.78641	170.371
1.78628	159.132
1.78615	155.275
1.78602	155.289
1.78588	156.704
1.78575	165.625
1.78562	164.42
1.78549	155.325
1.78535	156.648
1.78522	162.175
1.78509	167.245
1.78496	165.983
1.78482	167.214
1.78469	167.829
1.78456	157.638
1.78443	158.438
1.78429	157.239
1.78416	166.033
1.78403	153.295
1.7839	164.218
1.78376	164.451
1.78363	167.567
1.7835	165.944
1.78337	160.547
1.78324	164.543
1.7831	163.588
1.78297	161.72
1.78284	159.43
1.78271	158.96
1.78258	167.024
1.78244	157.44
1.78231	161.587
1.78218	171.083
1.78205	171.433
1.78192	167.34
1.78178	170.091
1.78165	166.958
1.78152	159.165
1.78139	160.691
1.78126	156.295
1.78112	169.896
1.78099	160.671
1.78086	157.046
1.78073	162.548
1.7806	155.299
1.78047	154.166
1.78033	167.201
1.7802	163.264
1.78007	159.976
1.77994	167.354
1.77981	172.572
1.77968	168.358
1.77955	162.765
1.77941	164.142
1.77928	172.006
1.77915	170.911
1.77902	163.747
1.77889	179.449
1.77876	168.608
1.77865	172
1.77851	156
1.77838	180
1.77825	160
1.77812	158
1.77799	166
1.77785	172
1.77772	172
1.77759	172
1.77746	164
1.77733	168
1.7772	158
1.77706	150
1.77693	166
1.7768	146
1.77667	160
1.77654	156
1.7764	156
1.77627	170
1.77614	168
1.77601	174
1.77588	174
1.77575	168
1.77561	154
1.77548	160
1.77535	154
1.77522	168
1.77509	164
1.77496	170
1.77483	170
1.77469	164
1.77456	158
1.77443	168
1.7743	156
1.77417	174
1.77404	154
1.77391	178
1.77377	180
1.77364	178
1.77351	164
1.77338	176
1.77325	166
1.77312	158
1.77299	170
1.77286	156
1.77273	168
1.77259	154
1.77246	160
1.77233	174
1.7722	164
1.77207	168
1.77194	164
1.77181	162
1.77168	166
1.77155	154
1.77142	160
1.77128	164
1.77115	164
1.77102	168
1.77089	156
1.77076	174
1.77063	160
1.7705	156
1.77037	166
1.77024	164
1.77011	168
1.76998	148
1.76985	164
1.76972	170
1.76958	162
1.76945	168
1.76932	164
1.76919	152
1.76906	154
1.76893	170
1.7688	162
1.76867	148
1.76854	162
1.76841	166
1.76828	160
1.76815	158
1.76802	164
1.76789	176
1.76776	162
1.76763	144
1.7675	148
1.76737	166
1.76724	160
1.76711	162
1.76698	144
1.76685	156
1.76672	158
1.76659	150
1.76646	162
1.76633	168
1.7662	156
1.76607	150
1.76594	156
1.76581	178
1.76568	178
1.76555	182
1.76542	168
1.76529	166
1.76516	164
1.76503	164
1.7649	158
1.76477	152
1.76464	158
1.76451	160
1.76438	174
1.76425	158
1.76412	166
1.76399	164
1.76386	170
1.76373	152
1.7636	158
1.76347	148
1.76334	162
1.76321	160
1.76308	164
1.76295	158
1.76282	160
1.76269	164
1.76256	146
1.76243	150
1.7623	154
1.76217	168
1.76204	152
1.76191	160
1.76178	154
1.76165	154
1.76153	160
1.7614	182
1.76127	150
1.76114	158
1.76101	166
1.76088	150
1.76075	158
1.76062	166
1.76049	156
1.76036	172
1.76023	178
1.7601	146
1.75997	164
1.75985	152
1.75972	154
1.75959	174
1.75946	154
1.75933	154
1.7592	158
1.75907	164
1.75894	168
1.75881	162
1.75868	154
1.75856	164
1.75843	160
1.7583	160
1.75817	160
1.75804	160
1.75791	152
1.75778	164
1.75765	176
1.75753	154
1.7574	170
1.75727	154
1.75714	160
1.75701	156
1.75688	166
1.75675	166
1.75662	158
1.7565	152
1.75637	158
1.75624	162
1.75611	168
1.75598	164
1.75585	176
1.75572	192
1.7556	346
1.75547	700
1.75534	786
1.75521	482
1.75508	178
1.75495	164
1.75483	158
1.7547	172
1.75457	156
1.75444	136
1.75431	154
1.75418	144
1.75406	172
1.75393	164
1.7538	156
1.75367	166
1.75354	160
1.75342	152
1.75329	160
1.75316	156
1.75303	152
1.7529	150
1.75278	160
1.75265	166
1.75252	160
1.75239	162
1.75226	150
1.75214	160
1.75201	146
1.75188	160
1.75175	170
1.75162	144
1.7515	170
1.75137	160
1.75124	152
1.75111	154
1.75099	168
1.75086	154
1.75073	164
1.7506	156
1.75048	156
1.75035	152
1.75022	160
1.75009	138
1.74996	154
1.74984	160
1.74971	152
1.74958	158
1.74945	148
1.74933	154
1.7492	164
1.74907	150
1.74894	142
1.74882	158
1.74869	154
1.74856	156
1.74844	156
1.74831	152
1.74818	152
1.74805	152
1.74793	138
1.7478	150
1.74767	142
1.74755	148
1.74742	170
1.74729	162
1.74716	136
1.74704	160
1.74691	160
1.74678	146
1.74666	150
1.74653	160
1.7464	148
1.74627	164
1.74615	142
1.74602	148
1.74589	152
1.74577	158
1.74564	162
1.74551	154
1.74539	166
1.74526	150
1.74513	154
1.74501	160
1.74488	146
1.74475	138
1.74463	150
1.7445	146
1.74437	150
1.74425	144
1.74412	156
1.74399	166
1.74387	150
1.74374	154
1.74361	154
1.74349	158
1.74336	150
1.74323	148
1.74311	158
1.74298	154
1.74285	152
1.74273	164
1.7426	144
1.74247	140
1.74235	146
1.74222	154
1.74209	134
1.74197	166
1.74184	150
1.74172	144
1.74159	144
1.74146	148
1.74134	162
1.74121	168
1.74108	166
1.74096	152
1.74083	152
1.74071	164
1.74058	156
1.74045	138
1.74033	152
1.7402	162
1.74008	152
1.73995	156
1.73982	138
1.7397	150
1.73957	140
1.73945	160
1.73932	152
1.73919	138
1.73907	158
1.73894	158
1.73882	150
1.73869	148
1.73857	150
1.73844	164
1.73831	156
1.73819	160
1.73806	164
1.73794	140
1.73781	144
1.73769	146
1.73756	142
1.73743	158
1.73731	150
1.73718	132
1.73706	158
1.73693	152
1.73681	144
1.73668	150
1.73656	162
1.73643	156
1.7363	146
1.73618	144
1.73605	152
1.73593	156
1.7358	162
1.73568	136
1.73555	146
1.73543	144
1.7353	130
1.73518	154
1.73505	158
1.73493	162
1.7348	158
1.73468	146
1.73455	162
1.73443	152
1.7343	140
1.73418	160
1.73405	144
1.73392	158
1.7338	150
1.73367	152
1.73355	152
1.73342	144
1.7333	138
1.73317	134
1.73305	136
1.73293	150
1.7328	148
1.73268	152
1.73255	154
1.73243	156
1.7323	144
1.73218	142
1.73205	152
1.73193	142
1.7318	142
1.73168	140
1.73155	170
1.73143	138
1.7313	146
1.73118	144
1.73105	144
1.73093	158
1.7308	152
1.73068	158
1.73056	148
1.73043	154
1.73031	148
1.73018	154
1.73006	162
1.72993	126
1.72981	142
1.72968	150
1.72956	156
1.72944	148
1.72931	138
1.72919	140
1.72906	130
1.72894	154
1.72881	132
1.72869	148
1.72857	150
1.72844	150
1.72832	142
1.72819	150
1.72807	136
1.72794	154
1.72782	154
1.7277	140
1.72757	136
1.72745	148
1.72732	144
1.7272	142
1.72708	152
1.72695	126
1.72683	144
1.7267	148
1.72658	142
1.72646	154
1.72633	142
1.72621	146
1.72608	144
1.72596	144
1.72584	156
1.72571	148
1.72559	150
1.72547	146
1.72534	148
1.72522	138
1.72509	150
1.72497	138
1.72485	136
1.72472	142
1.7246	140
1.72448	146
1.72435	154
1.72423	142
1.72411	146
1.72398	146
1.72386	158
1.72373	130
1.72361	136
1.72349	154
1.72336	138
1.72324	136
1.72312	148
1.72299	128
1.72287	154
1.72275	134
1.72262	132
1.7225	162
1.72238	144
1.72225	146
1.72213	138
1.72201	144
1.72188	136
1.72176	146
1.72164	144
1.72152	142
1.72139	158
1.72127	146
1.72115	148
1.72102	138
1.7209	150
1.72078	146
1.72065	148
1.72053	122
1.72041	138
1.72028	118
1.72016	136
1.72004	144
1.71992	136
1.71979	144
1.71967	140
1.71955	136
1.71942	144
1.7193	142
1.71918	152
1.71906	148
1.71893	136
1.71881	134
1.71869	158
1.71857	136
1.71844	150
1.71832	144
1.7182	146
1.71807	138
1.71795	144
1.71783	122
1.71771	126
1.71758	136
1.71746	134
1.71734	150
1.71722	132
1.71709	130
1.71697	130
1.71685	140
1.71673	150
1.7166	142
1.71648	132
1.71636	132
1.71624	142
1.71612	152
1.71599	150
1.71587	132
1.71575	138
1.71563	146
1.7155	154
1.71538	134
1.71526	150
1.71514	144
1.71502	128
1.71489	148
1.71477	144
1.71465	136
1.71453	128
1.7144	146
1.71428	114
1.71416	126
1.71404	148
1.71392	134
1.71379	190
1.71367	174
1.71355	150
1.71343	134
1.71331	146
1.71318	128
1.71306	128
1.71294	136
1.71282	154
1.7127	128
1.71258	132
1.71245	130
1.71233	142
1.71221	134
1.71209	140
1.71197	138
1.71185	144
1.71172	138
1.7116	128
1.71148	134
1.71136	140
1.71124	136
1.71112	128
1.71099	128
1.71087	128
1.71075	144
1.71063	134
1.71051	132
1.71039	138
1.71027	126
1.71014	138
1.71002	148
1.7099	136
1.70978	124
1.70966	124
1.70954	132
1.70942	142
1.70929	130
1.70917	126
1.70905	148
1.70893	132
1.70881	134
1.70869	118
1.70857	126
1.70845	130
1.70833	130
1.7082	126
1.70808	128
1.70796	134
1.70784	130
1.70772	146
1.7076	130
1.70748	130
1.70736	122
1.70724	134
1.70712	130
1.70699	134
1.70687	136
1.70675	132
1.70663	148
1.70651	142
1.70639	124
1.70627	122
1.70615	144
1.70603	134
1.70591	114
1.70579	142
1.70567	146
1.70554	138
1.70542	136
1.7053	140
1.70518	146
1.70506	122
1.70494	128
1.70482	124
1.7047	138
1.70458	136
1.70446	136
1.70434	122
1.70422	120
1.7041	134
1.70398	144
1.70386	128
1.70374	126
1.70362	138
1.7035	182
1.70337	408
1.70325	576
1.70313	306
1.70301	172
1.70289	146
1.70277	166
1.70265	170
1.70253	200
1.70241	158
1.70229	150
1.70217	134
1.70205	134
1.70193	118
1.70181	120
1.70169	116
1.70157	130
1.70145	132
1.70133	130
1.70121	136
1.70109	136
1.70097	132
1.70085	124
1.70073	128
1.70061	131
1.70049	134
1.70037	128
1.70025	146
1.70013	128
1.70001	124
1.69989	136
1.69977	132
1.69965	116
1.69953	122
1.69941	134
1.69929	132
1.69917	144
1.69905	120
1.69893	122
1.69881	130
1.69869	122
1.69858	136
1.69846	134
1.69834	136
1.69822	126
1.6981	150
1.69798	136
1.69786	136
1.69774	114
1.69762	118
1.6975	138
1.69738	124
1.69726	128
1.69714	140
1.69702	132
1.6969	140
1.69678	128
1.69666	140
1.69654	142
1.69642	130
1.69631	138
1.69619	142
1.69607	130
1.69595	142
1.69583	142
1.69571	126
1.69559	128
1.69547	122
1.69535	134
1.69523	134
1.69511	134
1.69499	128
1.69488	126
1.69476	122
1.69464	114
1.69452	118
1.6944	118
1.69428	136
1.69416	126
1.69404	128
1.69392	132
1.6938	120
1.69369	122
1.69357	122
1.69345	134
1.69333	134
1.69321	130
1.69309	120
1.69297	132
1.69285	132
1.69273	130
1.69262	118
1.6925	124
1.69238	130
1.69226	118
1.69214	124
1.69202	130
1.6919	128
1.69179	130
1.69167	122
1.69155	120
1.69143	134
1.69131	120
1.69119	114
1.69107	120
1.69096	116
1.69084	136
1.69072	126
1.6906	120
1.69048	128
1.69036	132
1.69025	110
1.69013	124
1.69001	136
1.68989	114
1.68977	114
1.68965	120
1.68954	114
1.68942	108
1.6893	126
1.68918	120
1.68906	130
1.68894	128
1.68883	128
1.68871	132
1.68859	124
1.68847	118
1.68835	142
1.68824	124
1.68812	118
1.688	118
1.68788	122
1.68776	126
1.68765	116
1.68753	124
1.68741	126
1.68729	98
1.68717	130
1.68706	118
1.68694	126
1.68682	134
1.6867	112
1.68658	114
1.68647	110
1.68635	124
1.68623	114
1.68611	122
1.686	126
1.68588	128
1.68576	124
1.68564	130
1.68552	124
1.68541	142
1.68529	130
1.68517	116
1.68505	114
1.68494	118
1.68482	122
1.6847	112
1.68458	120
1.68447	130
1.68435	118
1.68423	116
1.68411	120
1.684	112
1.68388	108
1.68376	120
1.68364	118
1.68353	130
1.68341	102
1.68329	118
1.68318	114
1.68306	124
1.68294	116
1.68282	118
1.68271	124
1.68259	112
1.68247	112
1.68235	112
1.68224	118
1.68212	120
1.682	110
1.68189	114
1.68177	122
1.68165	126
1.68154	120
1.68142	112
1.6813	124
1.68118	112
1.68107	120
1.68095	114
1.68083	122
1.68072	122
1.6806	132
1.68048	120
1.68037	128
1.68025	118
1.68013	124
1.68002	140
1.6799	122
1.67978	112
1.67966	114
1.67955	114
1.67943	134
1.67931	124
1.6792	120
1.67908	108
1.67896	122
1.67885	112
1.67873	122
1.67861	108
1.6785	118
1.67838	118
1.67826	110
1.67815	116
1.67803	118
1.67792	134
1.6778	124
1.67768	130
1.67757	122
1.67745	106
1.67733	102
1.67722	124
1.6771	116
1.67698	110.155
1.67687	112.361
1.67675	129.894
1.67663	120.136
1.67652	112.748
1.6764	122.699
1.67629	120.478
1.67617	129.952
1.67605	116.33
1.67594	123.447
1.67582	114.575
1.6757	122.324
1.67559	120.925
1.67547	124.993
1.67536	114.596
1.67524	118.248
1.67512	123.833
1.67501	112.885
1.67489	112.795
1.67478	112.441
1.67466	107.89
1.67454	120.533
1.67443	117.73
1.67431	114.924
1.6742	129.051
1.67408	122.773
1.67396	124.991
1.67385	120.843
1.67373	108.892
1.67362	116.618
1.6735	134.67
1.67339	118.785
1.67327	116.744
1.67315	117.485
1.67304	117.418
1.67292	122.772
1.67281	119.643
1.67269	124.913
1.67257	123.973
1.67246	115.297
1.67234	117.84
1.67223	121.341
1.67211	123.369
1.672	116.356
1.67188	114.219
1.67177	129.664
1.67165	115.955
1.67153	111.936
1.67142	120.367
1.6713	127.16
1.67119	120.271
1.67107	116.613
1.67096	114.36
1.67084	117.554
1.67073	119.817
1.67061	118.87
1.6705	119.484
1.67038	118.09
1.67026	116.608
1.67015	117.106
1.67003	127.366
1.66992	119.78
1.6698	121.662
1.66969	118.931
1.66957	128.357
1.66946	121.046
1.66934	118.344
1.66923	113.958
1.66911	114.36
1.669	111.358
1.66888	112.372
1.66877	121.195
1.66865	118.118
1.66854	125.278
1.66842	127.556
1.66831	122.942
1.66819	119.68
1.66808	123.485
1.66796	122.749
1.66785	125.84
1.66773	121.597
1.66762	119.913
1.6675	115.119
1.66739	114.18
1.66727	119.141
1.66716	118.178
1.66704	120.398
1.66693	125.139
1.66681	128.575
1.6667	124.951
1.66658	118.788
1.66647	114.206
1.66635	115.884
1.66624	107.242
1.66612	117.502
1.66601	122.991
1.66589	114.316
1.66578	113.535
1.66566	127.717
1.66555	123.325
1.66544	120.793
1.66532	124.375
1.66521	115.721
1.66513	104
1.66502	120
1.6649	124
1.66479	126
1.66467	124
1.66455	102
1.66444	132
1.66432	116
1.66421	126
1.66409	116
1.66398	106
1.66386	112
1.66375	112
1.66363	120
1.66352	116
1.6634	126
1.66329	130
1.66317	122
1.66306	116
1.66295	116
1.66283	128
1.66272	110
1.6626	120
1.66249	120
1.66237	106
1.66226	112
1.66214	116
1.66203	120
1.66191	114
1.6618	112
1.66168	124
1.66157	122
1.66145	118
1.66134	114
1.66122	112
1.66111	124
1.661	130
1.66088	104
1.66077	128
1.66065	126
1.66054	132
1.66042	94
1.66031	126
1.66019	122
1.66008	114
1.65996	126
1.65985	126
1.65974	114
1.65962	108
1.65951	118
1.65939	116
1.65928	118
1.65916	118
1.65905	108
1.65894	118
1.65882	116
1.65871	114
1.65859	104
1.65848	108
1.65836	126
1.65825	126
1.65814	110
1.65802	112
1.65791	120
1.65779	110
1.65768	106
1.65757	134
1.65745	126
1.65734	112
1.65722	122
1.65711	124
1.657	114
1.65688	120
1.65677	120
1.65665	108
1.65654	118
1.65643	124
1.65631	124
1.6562	118
1.65608	120
1.65597	120
1.65586	114
1.65574	116
1.65563	108
1.65551	104
1.6554	118
1.65529	110
1.65517	120
1.65506	116
1.65495	108
1.65483	108
1.65472	108
1.65461	104
1.65449	120
1.65438	110
1.65426	120
1.65415	118
1.65404	116
1.65392	122
1.65381	114
1.6537	124
1.65358	110
1.65347	110
1.65336	104
1.65324	126
1.65313	120
1.65302	112
1.6529	112
1.65279	118
1.65268	124
1.65256	110
1.65245	122
1.65234	114
1.65222	112
1.65211	116
1.652	108
1.65188	118
1.65177	120
1.65166	126
1.65154	114
1.65143	118
1.65132	108
1.6512	106
1.65109	106
1.65098	100
1.65086	110
1.65075	108
1.65064	98
1.65053	120
1.65041	116
1.6503	124
1.65019	124
1.65007	116
1.64996	108
1.64985	118
1.64973	112
1.64962	126
1.64951	118
1.6494	116
1.64928	104
1.64917	104
1.64906	116
1.64894	104
1.64883	110
1.64872	110
1.64861	106
1.64849	116
1.64838	98
1.64827	118
1.64816	120
1.64804	128
1.64793	118
1.64782	114
1.64771	114
1.64759	116
1.64748	110
1.64737	104
1.64725	132
1.64714	106
1.64703	122
1.64692	104
1.6468	110
1.64669	104
1.64658	112
1.64647	118
1.64635	110
1.64624	106
1.64613	120
1.64602	112
1.64591	102
1.64579	106
1.64568	108
1.64557	108
1.64546	108
1.64534	116
1.64523	104
1.64512	108
1.64501	110
1.6449	114
1.64478	120
1.64467	112
1.64456	102
1.64445	112
1.64433	106
1.64422	118
1.64411	122
1.644	112
1.64389	124
1.64377	124
1.64366	98
1.64355	110
1.64344	108
1.64333	106
1.64321	128
1.6431	100
1.64299	108
1.64288	114
1.64277	104
1.64265	116
1.64254	110
1.64243	118
1.64232	108
1.64221	116
1.6421	104
1.64198	114
1.64187	114
1.64176	110
1.64165	104
1.64154	100
1.64142	118
1.64131	110
1.6412	104
1.64109	102
1.64098	116
1.64087	102
1.64075	100
1.64064	102
1.64053	106
1.64042	114
1.64031	102
1.6402	96
1.64009	122
1.63997	122
1.63986	100
1.63975	100
1.63964	120
1.63953	108
1.63942	120
1.63931	108
1.63919	100
1.63908	108
1.63897	110
1.63886	116
1.63875	110
1.63864	106
1.63853	118
1.63842	112
1.6383	106
1.63819	104
1.63808	112
1.63797	108
1.63786	102
1.63775	118
1.63764	108
1.63753	104
1.63741	110
1.6373	116
1.63719	120
1.63708	112
1.63697	102
1.63686	114
1.63675	106
1.63664	96
1.63653	110
1.63642	108
1.6363	90
1.63619	104
1.63608	114
1.63597	98
1.63586	104
1.63575	112
1.63564	104
1.63553	110
1.63542	106
1.63531	104
1.6352	110
1.63508	106
1.63497	106
1.63486	102
1.63475	116
1.63464	104
1.63453	102
1.63442	106
1.63431	104
1.6342	114
1.63409	116
1.63398	108
1.63387	114
1.63376	98
1.63365	110
1.63354	124
1.63343	108
1.63331	106
1.6332	106
1.63309	106
1.63298	114
1.63287	100
1.63276	98
1.63265	118
1.63254	104
1.63243	112
1.63232	118
1.63221	104
1.6321	104
1.63199	94
1.63188	100
1.63177	104
1.63166	92
1.63155	104
1.63144	102
1.63133	106
1.63122	104
1.63111	88
1.631	96
1.63089	102
1.63078	104
1.63067	98
1.63056	108
1.63045	108
1.63034	96
1.63023	96
1.63012	104
1.63001	106
1.6299	108
1.62979	108
1.62968	102
1.62957	108
1.62946	96
1.62935	90
1.62924	102
1.62913	122
1.62902	92
1.62891	98
1.6288	108
1.62869	116
1.62858	104
1.62847	94
1.62836	102
1.62825	100
1.62814	118
1.62803	100
1.62792	118
1.62781	106
1.6277	100
1.62759	116
1.62748	100
1.62737	102
1.62726	94
1.62715	102
1.62704	110
1.62693	104
1.62682	96
1.62671	104
1.6266	110
1.62649	102
1.62639	90
1.62628	110
1.62617	98
1.62606	102
1.62595	98
1.62584	98
1.62573	106
1.62562	116
1.62551	110
1.6254	100
1.62529	118
1.62518	100
1.62507	102
1.62496	96
1.62485	100
1.62474	98
1.62464	88
1.62453	98
1.62442	104
1.62431	98
1.6242	102
1.62409	104
1.62398	106
1.62387	96
1.62376	100
1.62365	116
1.62354	94
1.62343	104
1.62333	110
1.62322	106
1.62311	104
1.623	106
1.62289	102
1.62278	106
1.62267	94
1.62256	108
1.62245	92
1.62234	104
1.62224	90
1.62213	92
1.62202	110
1.62191	98
1.6218	102
1.62169	90
1.62158	108
1.62147	112
1.62137	106
1.62126	104
1.62115	104
1.62104	96
1.62093	88
1.62082	98
1.62071	110
1.6206	102
1.6205	96
1.62039	82
1.62028	102
1.62017	98
1.62006	100
1.61995	100
1.61984	100
1.61974	96
1.61963	96
1.61952	94
1.61941	96
1.6193	106
1.61919	98
1.61908	102
1.61898	106
1.61887	102
1.61876	98
1.61865	106
1.61854	102
1.61843	94
1.61833	90
1.61822	96
1.61811	106
1.618	102
1.61789	90
1.61778	100
1.61768	110
1.61757	98
1.61746	102
1.61735	100
1.61724	114
1.61714	92
1.61703	86
1.61692	98
1.61681	104
1.6167	94
1.6166	110
1.61649	98
1.61638	98
1.61627	106
1.61616	92
1.61605	94
1.61595	94
1.61584	108
1.61573	90
1.61562	104
1.61552	106
1.61541	92
1.6153	98
1.61519	92
1.61508	94
1.61498	94
1.61487	106
1.61476	110
1.61465	96
1.61454	92
1.61444	104
1.61433	96
1.61422	100
1.61411	94
1.61401	96
1.6139	100
1.61379	106
1.61368	92
1.61358	92
1.61347	100
1.61336	94
1.61325	102
1.61314	110
1.61304	102
1.61293	98
1.61282	92
1.61271	96
1.61261	96
1.6125	98
1.61239	96
1.61228	82
1.61218	86
1.61207	92
1.61196	110
1.61186	82
1.61175	80
1.61164	88
1.61153	104
1.61143	98
1.61132	96
1.61121	92
1.6111	94
1.611	90
1.61089	102
1.61078	90
1.61067	94
1.61057	98
1.61046	88
1.61035	98
1.61025	98
1.61014	106
1.61003	88
1.60992	92
1.60982	92
1.60971	92
1.6096	94
1.6095	92
1.60939	92
1.60928	82
1.60918	88
1.60907	94
1.60896	96
1.60885	88
1.60875	90
1.60864	104
1.60853	94
1.60843	102
1.60832	86
1.60821	94
1.60811	98
1.608	86
1.60789	84
1.60779	92
1.60768	94
1.60757	92
1.60747	94
1.60736	84
1.60725	90
1.60715	94
1.60704	84
1.60693	90
1.60683	98
1.60672	96
1.60661	82
1.60651	100
1.6064	88
1.60629	104
1.60619	82
1.60608	98
1.60597	90
1.60587	94
1.60576	96
1.60565	88
1.60555	90
1.60544	90
1.60533	100
1.60523	92
1.60512	98
1.60501	96
1.60491	92
1.6048	94
1.6047	98
1.60459	88
1.60448	96
1.60438	94
1.60427	92
1.60416	90
1.60406	94
1.60395	98
1.60385	92
1.60374	90
1.60363	98
1.60353	106
1.60342	84
1.60331	92
1.60321	100
1.6031	90
1.603	100
1.60289	96
1.60278	86
1.60268	100
1.60257	98
1.60247	104
1.60236	88
1.60225	88
1.60215	94
1.60204	82
1.60194	88
1.60183	88
1.60172	88
1.60162	94
1.60151	90
1.60141	96
1.6013	80
1.60119	94
1.60109	92
1.60098	94
1.60088	88
1.60077	92
1.60067	90
1.60056	92
1.60045	92
1.60035	86
1.60024	94
1.60014	90
1.60003	90
1.59993	90
1.59982	82
1.59971	78
1.59961	96
1.5995	96
1.5994	88
1.59929	88
1.59919	86
1.59908	88
1.59897	84
1.59887	78
1.59876	90
1.59866	78
1.59855	96
1.59845	84
1.59834	84
1.59824	80
1.59813	88
1.59803	90
1.59792	86
1.59782	84
1.59771	100
1.5976	88
1.5975	88
1.59739	86
1.59729	92
1.59718	88
1.59708	84
1.59697	84
1.59687	84
1.59676	84
1.59666	76
1.59655	94
1.59645	92
1.59634	96
1.59624	86
1.59613	82
1.59603	88
1.59592	84
1.59582	96
1.59571	86
1.59561	92
1.5955	82
1.5954	90
1.59529	104
1.59519	86
1.59508	94
1.59498	88
1.59487	94
1.59477	92
1.59466	76
1.59456	86
1.59445	82
1.59435	80
1.59424	84
1.59414	92
1.59403	96
1.59393	78
1.59382	86
1.59372	90
1.59361	80
1.59351	76
1.5934	76
1.5933	96
1.59319	96
1.59309	80
1.59298	100
1.59288	92
1.59278	84
1.59267	78
1.59257	82
1.59246	90
1.59236	84
1.59225	80
1.59215	90
1.59204	86
1.59194	86
1.59183	76
1.59173	88
1.59163	86
1.59152	90
1.59142	70
1.59131	84
1.59121	88
1.5911	82
1.591	72
1.59089	80
1.59079	88
1.59069	82
1.59058	82
1.59048	76
1.59037	86
1.59027	82
1.59016	80
1.59006	78
1.58996	86
1.58985	82
1.58975	80
1.58964	88
1.58954	82
1.58943	70
1.58933	80
1.58923	88
1.58912	84
1.58902	86
1.58891	84
1.58881	84
1.58871	80
1.5886	90
1.5885	88
1.58839	88
1.58829	80
1.58819	72
1.58808	80
1.58798	96
1.58787	76
1.58777	78
1.58767	80
1.58756	74
1.58746	82
1.58735	76
1.58725	86
1.58715	70
1.58704	78
1.58694	76
1.58684	88
1.58673	84
1.58663	80
1.58652	84
1.58642	88
1.58632	86
1.58621	88
1.58611	82
1.58601	90
1.5859	86
1.5858	68
1.58569	88
1.58559	88
1.58549	82
1.58538	82
1.58528	72
1.58518	72
1.58507	82
1.58497	94
1.58487	74
1.58476	78
1.58466	78
1.58456	92
1.58445	82
1.58435	86
1.58425	78
1.58414	78
1.58404	76
1.58394	84
1.58383	102
1.58373	76
1.58363	84
1.58352	82
1.58342	84
1.58332	78
1.58321	84
1.58311	78
1.58301	82
1.5829	76
1.5828	70
1.5827	82
1.58259	88
1.58249	84
1.58239	84
1.58228	86
1.58218	76
1.58208	78
1.58197	80
1.58187	100
1.58177	78
1.58166	72
1.58156	92
1.58146	80
1.58136	72
1.58125	76
1.58115	76
1.58105	74
1.58094	86
1.58084	86
1.58074	82
1.58064	82
1.58053	82
1.58043	88
1.58033	82
1.58022	72
1.58012	82
1.58002	82
1.57992	82
1.57981	86
1.57971	86
1.57961	82
1.5795	82
1.5794	82
1.5793	78
1.5792	84
1.57909	88
1.57899	76
1.57889	62
1.57879	84
1.57868	76
1.57858	80
1.57848	88
1.57837	86
1.57827	82
1.57817	66
1.57807	84
1.57796	86
1.57786	64
1.57776	70
1.57766	80
1.57755	82
1.57745	96
1.57735	90
1.57725	78
1.57715	80
1.57704	70
1.57694	82
1.57684	82
1.57674	80
1.57663	80
1.57653	80
1.57643	82
1.57633	86
1.57622	76
1.57612	68
1.57602	82.0083
1.57592	81.9322
1.57582	74.0633
1.57571	76.0314
1.57561	94.9244
1.57551	71.6733
1.57541	82.908
1.5753	77.6308
1.5752	78.2117
1.5751	74.2789
1.575	80.197
1.5749	75.3829
1.57479	83.0576
1.57469	71.1073
1.57459	68.1635
1.57449	76.4157
1.57439	75.4728
1.57428	74.6828
1.57418	71.7047
1.57408	76.6963
1.57398	74.6736
1.57388	66.5545
1.57377	74.14
1.57367	70.0028
1.57357	76.7347
1.57347	79.9802
1.57337	75.7922
1.57326	76.0991
1.57316	75.218
1.57306	77.9895
1.57296	74.6578
1.57286	76.2634
1.57276	81.1962
1.57265	70.3001
1.57255	74.1235
1.57245	82.3759
1.57235	72.6522
1.57225	82.1283
1.57214	76.4753
1.57204	76.4356
1.57194	78.7921
1.57184	74
1.57174	72.5661
1.57164	74.4524
1.57154	66.642
1.57143	70.922
1.57133	74.6408
1.57123	73.0236
1.57113	77.2464
1.57103	74.3601
1.57093	77.85
1.57082	74.0284
1.57072	74.1931
1.57062	72.928
1.57052	76.2871
1.57042	74.5548
1.57032	65.1814
1.57022	80.0658
1.57011	82
1.57001	64.7876
1.56991	74.5624
1.56981	66.5748
1.56971	74.9434
1.56961	79.8792
1.56951	78.8212
1.5694	72.3452
1.5693	76.9719
1.5692	72.8642
1.5691	75.9307
1.569	72.7179
1.5689	71.9455
1.5688	73.7645
1.5687	67.9764
1.56859	77.0955
1.56849	75.8974
1.56839	80.8045
1.56829	69.3977
1.56819	73.6907
1.56809	75.3509
1.56799	72.9383
1.56789	64.0164
1.56779	70.3534
1.56768	74.5147
1.56758	66.9625
1.56748	72.9004
1.56738	69.1716
1.56728	75.0656
1.56718	68.4158
1.56708	66.9901
1.56698	68.2772
1.56688	74.2293
1.56678	68.911
1.56667	77.5421
1.56657	71.678
1.56647	67.5921
1.56637	63.5045
1.56627	62.2673
1.56617	71.2694
1.56607	76.9583
1.56597	77.8218
1.56587	67.5324
1.56584	64
1.56574	76
1.56564	70
1.56554	66
1.56544	60
1.56534	62
1.56523	78
1.56513	64
1.56503	72
1.56493	76
1.56483	66
1.56473	62
1.56463	70
1.56453	80
1.56442	74
1.56432	72
1.56422	68
1.56412	80
1.56402	82
1.56392	78
1.56382	74
1.56372	66
1.56362	68
1.56351	64
1.56341	68
1.56331	58
1.56321	72
1.56311	74
1.56301	72
1.56291	72
1.56281	70
1.56271	76
1.56261	66
1.56251	70
1.5624	68
1.5623	80
1.5622	68
1.5621	80
1.562	88
1.5619	70
1.5618	78
1.5617	76
1.5616	80
1.5615	72
1.5614	64
1.5613	68
1.56119	66
1.56109	80
1.56099	66
1.56089	64
1.56079	86
1.56069	78
1.56059	72
1.56049	70
1.56039	58
1.56029	70
1.56019	68
1.56009	68
1.55999	66
1.55989	68
1.55979	66
1.55969	80
1.55959	74
1.55948	76
1.55938	70
1.55928	64
1.55918	70
1.55908	70
1.55898	76
1.55888	66
1.55878	72
1.55868	68
1.55858	58
1.55848	66
1.55838	76
1.55828	72
1.55818	70
1.55808	72
1.55798	72
1.55788	72
1.55778	68
1.55768	78
1.55758	78
1.55748	74
1.55738	66
1.55728	66
1.55718	70
1.55708	78
1.55698	64
1.55688	60
1.55678	60
1.55668	80
1.55658	64
1.55648	58
1.55638	64
1.55628	66
1.55618	68
1.55608	74
1.55598	64
1.55588	70
1.55578	74
1.55568	74
1.55558	68
1.55548	66
1.55538	64
1.55528	54
1.55518	72
1.55508	70
1.55498	68
1.55488	66
1.55478	74
1.55468	66
1.55458	66
1.55448	64
1.55438	74
1.55428	64
1.55418	62
1.55408	60
1.55398	78
1.55388	66
1.55378	70
1.55368	70
1.55358	78
1.55348	66
1.55338	62
1.55328	64
1.55318	74
1.55308	64
1.55298	58
1.55288	68
1.55278	60
1.55269	56
1.55259	68
1.55249	66
1.55239	72
1.55229	70
1.55219	60
1.55209	66
1.55199	70
1.55189	66
1.55179	72
1.55169	70
1.55159	58
1.55149	76
1.55139	60
1.55129	66
1.55119	72
1.55109	62
1.551	62
1.5509	62
1.5508	72
1.5507	76
1.5506	66
1.5505	64
1.5504	72
1.5503	62
1.5502	70
1.5501	64
1.55	66
1.5499	66
1.5498	68
1.54971	72
1.54961	78
1.54951	76
1.54941	64
1.54931	68
1.54921	64
1.54911	68
1.54901	64
1.54891	64
1.54881	66
1.54872	74
1.54862	60
1.54852	74
1.54842	70
1.54832	58
1.54822	52
1.54812	74
1.54802	66
1.54792	58
1.54783	70
1.54773	66
1.54763	64
1.54753	70
1.54743	68
1.54733	72
1.54723	66
1.54713	64
1.54703	70
1.54694	60
1.54684	56
1.54674	68
1.54664	76
1.54654	72
1.54644	62
1.54634	60
1.54625	70
1.54615	66
1.54605	70
1.54595	70
1.54585	60
1.54575	64
1.54565	58
1.54556	62
1.54546	64
1.54536	64
1.54526	68
1.54516	64
1.54506	78
1.54496	76
1.54487	54
1.54477	64
1.54467	76
1.54457	62
1.54447	64
1.54437	68
1.54428	60
1.54418	62
1.54408	64
1.54398	66
1.54388	72
1.54378	56
1.54369	62
1.54359	68
1.54349	68
1.54339	70
1.54329	62
1.54319	66
1.5431	60
1.543	62
1.5429	64
1.5428	70
1.5427	62
1.54261	66
1.54251	70
1.54241	64
1.54231	70
1.54221	68
1.54212	70
1.54202	64
1.54192	64
1.54182	64
1.54172	58
1.54163	66
1.54153	64
1.54143	64
1.54133	68
1.54123	62
1.54114	60
1.54104	60
1.54094	68
1.54084	70
1.54074	68
1.54065	72
1.54055	74
1.54045	76
1.54035	58
1.54025	74
1.54016	64
1.54006	72
1.53996	62
1.53986	60
1.53977	58
1.53967	60
1.53957	70
1.53947	68
1.53937	62
1.53928	54
1.53918	66
1.53908	70
1.53898	70
1.53889	76
1.53879	66
1.53869	64
1.53859	62
1.5385	64
1.5384	62
1.5383	66
1.5382	60
1.53811	64
1.53801	62
1.53791	74
1.53781	66
1.53772	60
1.53762	70
1.53752	102
1.53742	140
1.53733	108
1.53723	64
1.53713	72
1.53703	58
1.53694	64
1.53684	64
1.53674	56
1.53665	62
1.53655	72
1.53645	60
1.53635	64
1.53626	74
1.53616	74
1.53606	60
1.53596	62
1.53587	58
1.53577	50
1.53567	64
1.53558	64
1.53548	62
1.53538	66
1.53528	62
1.53519	72
1.53509	68
1.53499	58
1.5349	72
1.5348	60
1.5347	62
1.5346	68
1.53451	66
1.53441	56
1.53431	54
1.53422	56
1.53412	70
1.53402	56
1.53393	62
1.53383	56
1.53373	62
1.53364	64
1.53354	70
1.53344	60
1.53334	52
1.53325	52
1.53315	62
1.53305	66
1.53296	66
1.53286	68
1.53276	68
1.53267	56
1.53257	64
1.53247	62
1.53238	58
1.53228	58
1.53218	58
1.53209	66
1.53199	62
1.53189	68
1.5318	44
1.5317	66
1.5316	66
1.53151	68
1.53141	50
1.53131	60
1.53122	62
1.53112	60
1.53102	68
1.53093	56
1.53083	62
1.53073	70
1.53064	58
1.53054	60
1.53045	74
1.53035	54
1.53025	60
1.53016	60
1.53006	66
1.52996	62
1.52987	58
1.52977	64
1.52967	62
1.52958	78
1.52948	66
1.52939	58
1.52929	58
1.52919	62
1.5291	54
1.529	58
1.5289	64
1.52881	68
1.52871	62
1.52862	58
1.52852	64
1.52842	62
1.52833	58
1.52823	52
1.52813	68
1.52804	60
1.52794	64
1.52785	54
1.52775	62
1.52765	58
1.52756	62
1.52746	58
1.52737	66
1.52727	68
1.52717	60
1.52708	64
1.52698	52
1.52689	64
1.52679	52
1.52669	64
1.5266	60
1.5265	64
1.52641	58
1.52631	58
1.52621	60
1.52612	70
1.52602	58
1.52593	66
1.52583	64
1.52574	56
1.52564	48
1.52554	60
1.52545	68
1.52535	50
1.52526	68
1.52516	62
1.52507	56
1.52497	56
1.52487	54
1.52478	52
1.52468	70
1.52459	50
1.52449	44
1.5244	68
1.5243	68
1.5242	66
1.52411	60
1.52401	64
1.52392	58
1.52382	52
1.52373	62
1.52363	60
1.52354	62
1.52344	78
1.52334	60
1.52325	64
1.52315	70
1.52306	60
1.52296	62
1.52287	68
1.52277	74
1.52268	68
1.52258	50
1.52249	68
1.52239	58
1.5223	50
1.5222	60
1.5221	64
1.52201	54
1.52191	64
1.52182	50
1.52172	60
1.52163	62
1.52153	50
1.52144	60
1.52134	54
1.52125	60
1.52115	52
1.52106	56
1.52096	68
1.52087	64
1.52077	56
1.52068	64
1.52058	52
1.52049	62
1.52039	60
1.5203	58
1.5202	64
1.52011	58
1.52001	60
1.51992	62
1.51982	54
1.51973	58
1.51963	54
1.51954	56
1.51944	60
1.51935	62
1.51925	52
1.51916	62
1.51906	62
1.51897	70
1.51887	48
1.51878	64
1.51868	64
1.51859	60
1.51849	62
1.5184	58
1.5183	54
1.51821	54
1.51811	60
1.51802	70
1.51792	60
1.51783	56
1.51773	60
1.51764	64
1.51755	58
1.51745	60
1.51736	54
1.51726	60
1.51717	54
1.51707	52
1.51698	60
1.51688	52
1.51679	60
1.51669	52
1.5166	52
1.5165	54
1.51641	58
1.51632	50
1.51622	50
1.51613	66
1.51603	58
1.51594	44
1.51584	58
1.51575	62
1.51565	54
1.51556	58
1.51547	56
1.51537	56
1.51528	60
1.51518	58
1.51509	58
1.51499	54
1.5149	44
1.51481	58
1.51471	58
1.51462	62
1.51452	50
1.51443	56
1.51433	62
1.51424	64
1.51415	58
1.51405	54
1.51396	64
1.51386	50
1.51377	52
1.51367	58
1.51358	56
1.51349	56
1.51339	60
1.5133	66
1.5132	58
1.51311	50
1.51302	58
1.51292	60
1.51283	54
1.51273	50
1.51264	54
1.51255	60
1.51245	70
1.51236	66
1.51226	50
1.51217	46
1.51208	66
1.51198	58
1.51189	50
1.51179	58
1.5117	64
1.51161	46
1.51151	52
1.51142	58
1.51132	54
1.51123	50
1.51114	58
1.51104	66
1.51095	60
1.51086	56
1.51076	52
1.51067	56
1.51057	64
1.51048	50
1.51039	54
1.51029	60
1.5102	50
1.51011	54
1.51001	54
1.50992	64
1.50983	50
1.50973	50
1.50964	50
1.50954	60
1.50945	62
1.50936	46
1.50926	50
1.50917	48
1.50908	60
1.50898	54
1.50889	56
1.5088	60
1.5087	46
1.50861	52
1.50852	48
1.50842	62
1.50833	50
1.50824	62
1.50814	62
1.50805	58
1.50796	50
1.50786	60
1.50777	60
1.50768	62
1.50758	60
1.50749	52
1.5074	56
1.5073	46
1.50721	46
1.50712	60
1.50702	70
1.50693	58
1.50684	62
1.50674	64
1.50665	62
1.50656	48
1.50646	48
1.50637	50
1.50628	58
1.50618	56
1.50609	54
1.506	52
1.5059	56
1.50581	48
1.50572	54
1.50563	56
1.50553	56
1.50544	56
1.50535	56
1.50525	58
1.50516	52
1.50507	48
1.50497	56
1.50488	54
1.50479	52
1.5047	46
1.5046	48
1.50451	48
1.50442	52
1.50432	50
1.50423	48
1.50414	60
1.50405	48
1.50395	48
1.50386	52
1.50377	46
1.50367	52
1.50358	56
1.50349	50
1.5034	44
1.5033	42
1.50321	52
1.50312	56
1.50302	56
1.50293	56
1.50284	48
1.50275	50
1.50265	62
1.50256	54
1.50247	56
1.50238	58
1.50228	62
1.50219	54
1.5021	50
1.50201	68
1.50191	56
1.50182	44
1.50173	50
1.50164	60
1.50154	58
1.50145	54
1.50136	54
1.50127	58
1.50117	56
1.50108	50
1.50099	48
1.5009	60
1.5008	52
1.50071	56
1.50062	52
1.50053	54
1.50043	60
1.50034	60
1.50025	56
1.50016	42
1.50006	52
1.49997	44
1.49988	52
1.49979	60
1.4997	54
1.4996	56
1.49951	54
1.49942	50
1.49933	50
1.49923	60
1.49914	56
1.49905	52
1.49896	50
1.49887	50
1.49877	58
1.49868	50
1.49859	54
1.4985	56
1.49841	50
1.49831	60
1.49822	58
1.49813	50
1.49804	60
1.49795	50
1.49785	60
1.49776	44
1.49767	52
1.49758	54
1.49749	40
1.49739	56
1.4973	52
1.49721	50
1.49712	50
1.49703	54
1.49693	54
1.49684	52
1.49675	50
1.49666	60
1.49657	54
1.49647	54
1.49638	44
1.49629	56
1.4962	54
1.49611	54
1.49602	50
1.49592	50
1.49583	50
1.49574	52
1.49565	58
1.49556	58
1.49547	48
1.49537	54
1.49528	56
1.49519	50
1.4951	44
1.49501	54
1.49492	40
1.49482	50
1.49473	46
1.49464	50
1.49455	44
1.49446	60
1.49437	58
1.49428	52
1.49418	60
1.49409	52
1.494	52
1.49391	48
1.49382	58
1.49373	42
1.49363	54
1.49354	58
1.49345	50
1.49336	48
1.49327	46
1.49318	40
1.49309	60
1.493	42
1.4929	46
1.49281	50
1.49272	52
1.49263	56
1.49254	54
1.49245	50
1.49236	60
1.49226	46
1.49217	52
1.49208	58
1.49199	46
1.4919	48
1.49181	48
1.49172	48
1.49163	40
1.49154	50
1.49144	46
1.49135	50
1.49126	50
1.49117	50
1.49108	50
1.49099	46
1.4909	46
1.49081	46
1.49072	44
1.49062	42
1.49053	48
1.49044	48
1.49035	54
1.49026	48
1.49017	48
1.49008	44
1.48999	42
1.4899	48
1.48981	58
1.48972	58
1.48962	50
1.48953	44
1.48944	52
1.48935	48
1.48926	54
1.48917	60
1.48908	42
1.48899	54
1.4889	46
1.48881	46
1.48872	54
1.48863	46
1.48853	46
1.48844	54
1.48835	50
1.48826	44
1.48817	46
1.48808	58
1.48799	50
1.4879	48
1.48781	52
1.48772	52
1.48763	46
1.48754	50
1.48745	50
1.48736	50
1.48727	52
1.48717	48
1.48708	54
1.48699	55.9703
1.4869	49.8778
1.48681	43.9523
1.48672	46.3041
1.48663	46.5642
1.48654	57.4223
1.48645	47.6984
1.48636	55.593
1.48627	47.7434
1.48618	45.7968
1.48609	40.7558
1.486	48
1.48591	54.7014
1.48582	46.2286
1.48573	51.3612
1.48564	42.2413
1.48555	49.0855
1.48546	44.1401
1.48537	40.5162
1.48528	50.0346
1.48519	50.2777
1.4851	52.9667
1.48501	45.6253
1.48492	46.1718
1.48482	49.9454
1.48473	46.2271
1.48464	44.4806
1.48455	47.5477
1.48446	51.7766
1.48437	47.1012
1.48428	51.8995
1.48419	46.3014
1.4841	49.0416
1.48401	48.3357
1.48392	50
1.48383	44.3725
1.48374	46.8769
1.48365	48.3837
1.48356	52.0767
1.48347	52.9143
1.48338	46.4498
1.48329	47.0485
1.4832	50.3758
1.48311	56.4522
1.48302	51.8476
1.48293	43.2106
1.48284	48.5565
1.48275	53.041
1.48266	51.4221
1.48257	46.0396
1.48248	45.6411
1.48239	50.0396
1.4823	50.4933
1.48221	48.4657
1.48212	46.9075
1.48203	47.5391
1.48194	48.0407
1.48185	45.2429
1.48176	48.9496
1.48167	45.8911
1.48158	47.9742
1.48149	46.0759
1.4814	48.8972
1.48132	50.8363
1.48123	46.4538
1.48114	43.0815
1.48105	46.6337
1.48096	45.4214
1.48087	43.2461
1.48078	48.8264
1.48069	46.5384
1.4806	42.8437
1.48051	41.8426
1.48042	48.461
1.48033	52.7225
1.48024	46.7838
1.48015	43.9099
1.48006	44.995
1.47997	44.1651
1.47988	42.4257
1.47979	41.647
1.4797	43.3404
1.47961	47.6277
1.47952	44.3639
1.47943	46.3587
1.47934	49.7246
1.47925	52.1686
1.47916	38.1321
1.47907	50.427
1.47899	49.342
1.4789	45.0525
1.47881	45.6333
1.47872	51.2175
1.47863	47.8473
1.47854	50.9749
1.47845	72.1761
1.47836	71.5174
1.47827	55.8313
1.47818	44.7166
1.47809	47.4065
1.478	44
1.47792	44
1.47783	42
1.47774	44
1.47765	42
1.47756	54
1.47747	42
1.47738	50
1.47729	38
1.47721	38
1.47712	44
1.47703	42
1.47694	50
1.47685	52
1.47676	38
1.47667	46
1.47658	42
1.47649	44
1.4764	42
1.47631	46
1.47622	44
1.47613	58
1.47604	44
1.47595	42
1.47586	48
1.47577	48
1.47568	52
1.47559	46
1.4755	46
1.47541	44
1.47532	40
1.47523	50
1.47514	44
1.47505	40
1.47497	42
1.47488	50
1.47479	48
1.4747	48
1.47461	42
1.47452	44
1.47443	42
1.47434	34
1.47425	46
1.47416	38
1.47407	46
1.47398	44
1.47389	40
1.4738	44
1.47371	32
1.47363	46
1.47354	42
1.47345	44
1.47336	50
1.47327	36
1.47318	38
1.47309	38
1.473	50
1.47291	48
1.47282	40
1.47273	42
1.47264	44
1.47256	42
1.47247	44
1.47238	44
1.47229	52
1.4722	40
1.47211	40
1.47202	50
1.47193	42
1.47184	40
1.47175	52
1.47166	44
1.47158	46
1.47149	46
1.4714	46
1.47131	44
1.47122	44
1.47113	42
1.47104	48
1.47095	42
1.47086	44
1.47078	46
1.47069	42
1.4706	48
1.47051	42
1.47042	46
1.47033	44
1.47024	44
1.47015	48
1.47006	46
1.46998	46
1.46989	44
1.4698	42
1.46971	44
1.46962	48
1.46953	40
1.46944	40
1.46935	40
1.46927	32
1.46918	46
1.46909	50
1.469	40
1.46891	40
1.46882	40
1.46873	42
1.46865	48
1.46856	44
1.46847	46
1.46838	40
1.46829	40
1.4682	46
1.46811	50
1.46803	36
1.46794	36
1.46785	44
1.46776	48
1.46767	42
1.46758	42
1.46749	36
1.46741	46
1.46732	42
1.46723	50
1.46714	54
1.46705	48
1.46696	38
1.46688	44
1.46679	44
1.4667	48
1.46661	40
1.46652	46
1.46643	40
1.46635	44
1.46626	42
1.46617	36
1.46608	48
1.46599	40
1.4659	46
1.46582	44
1.46573	38
1.46564	56
1.46555	36
1.46546	42
1.46538	58
1.46529	36
1.4652	40
1.46511	44
1.46502	52
1.46493	44
1.46485	36
1.46476	44
1.46467	44
1.46458	36
1.46449	44
1.46441	46
1.46432	44
1.46423	38
1.46414	34
1.46405	44
1.46397	38
1.46388	38
1.46379	38
1.4637	44
1.46361	44
1.46353	34
1.46344	34
1.46335	44
1.46326	36
1.46317	36
1.46309	38
1.463	46
1.46291	46
1.46282	36
1.46274	50
1.46265	40
1.46256	44
1.46247	46
1.46238	40
1.4623	42
1.46221	46
1.46212	48
1.46203	40
1.46195	42
1.46186	46
1.46177	42
1.46168	40
1.46159	42
1.46151	44
1.46142	50
1.46133	48
1.46124	46
1.46116	44
1.46107	36
1.46098	42
1.46089	54
1.46081	38
1.46072	34
1.46063	42
1.46054	46
1.46046	38
1.46037	36
1.46028	42
1.46019	40
1.46011	40
1.46002	40
1.45993	40
1.45984	34
1.45976	32
1.45967	38
1.45958	40
1.45949	26
1.45941	36
1.45932	44
1.45923	32
1.45914	48
1.45906	32
1.45897	42
1.45888	42
1.45879	40
1.45871	34
1.45862	34
1.45853	38
1.45845	38
1.45836	32
1.45827	38
1.45818	42
1.4581	30
1.45801	28
1.45792	36
1.45784	36
1.45775	38
1.45766	30
1.45757	38
1.45749	40
1.4574	38
1.45731	38
1.45723	44
1.45714	36
1.45705	38
1.45696	32
1.45688	42
1.45679	38
1.4567	42
1.45662	40
1.45653	40
1.45644	40
1.45635	38
1.45627	42
1.45618	40
1.45609	34
1.45601	32
1.45592	40
1.45583	46
1.45575	34
1.45566	34
1.45557	32
1.45549	42
1.4554	36
1.45531	36
1.45523	36
1.45514	46
1.45505	36
1.45496	34
1.45488	34
1.45479	36
1.4547	34
1.45462	32
1.45453	34
1.45444	40
1.45436	34
1.45427	42
1.45418	42
1.4541	36
1.45401	62
1.45392	118
1.45384	116
1.45375	62
1.45366	32
1.45358	38
1.45349	42
1.4534	26
1.45332	36
1.45323	36
1.45314	36
1.45306	30
1.45297	36
1.45288	34
1.4528	40
1.45271	44
1.45263	34
1.45254	42
1.45245	46
1.45237	38
1.45228	42
1.45219	36
1.45211	40
1.45202	32
1.45193	36
1.45185	40
1.45176	36
1.45167	32
1.45159	30
1.4515	38
1.45142	32
1.45133	34
1.45124	32
1.45116	32
1.45107	32
1.45098	32
1.4509	36
1.45081	32
1.45073	28
1.45064	36
1.45055	26
1.45047	28
1.45038	32
1.45029	34
1.45021	28
1.45012	38
1.45004	34
1.44995	32
1.44986	30
1.44978	34
1.44969	30
1.4496	26
1.44952	34
1.44943	30
1.44935	34
1.44926	28
1.44917	28
1.44909	28
1.449	26
1.44892	24
1.44883	32
1.44874	36
1.44866	30
1.44857	30
1.44849	30
1.4484	30
1.44831	28
1.44823	28
1.44814	36
1.44806	30
1.44797	34
1.44789	20
1.4478	28
1.44771	34
1.44763	28
1.44754	24
1.44746	38
1.44737	22
1.44728	28
1.4472	28
1.44711	40
1.44703	26
1.44694	30
1.44686	26
1.44677	22
1.44668	28
1.4466	30
1.44651	26
1.44643	30
1.44634	34
1.44626	36
1.44617	20
1.44608	40
1.446	26
1.44591	36
1.44583	32
1.44574	30
1.44566	26
1.44557	26
1.44548	36
1.4454	26
1.44531	34
1.44523	28
1.44514	30
1.44506	28
1.44497	32
1.44489	28
1.4448	30
1.44472	28
1.44463	30
1.44454	28
1.44446	34
1.44437	34
1.44429	30
1.4442	28
1.44412	36
1.44403	22
1.44395	28
1.44386	32
1.44378	30
1.44369	32
1.44361	26
1.44352	22
1.44343	30
1.44335	28
1.44326	28
1.44318	28
1.44309	34
1.44301	30
1.44292	24
1.44284	24
1.44275	32
1.44267	28
1.44258	22
1.4425	36
1.44241	36
1.44233	28
1.44224	30
1.44216	30
1.44207	28
1.44199	26
1.4419	24
1.44182	28
1.44173	26
1.44165	30
1.44156	28
1.44148	30
1.44139	30
1.44131	32
1.44122	24
1.44114	26
1.44105	32
1.44097	38
1.44088	36
1.4408	30
1.44071	22
1.44063	28
1.44054	24
1.44046	36
1.44037	30
1.44029	34
1.4402	22
1.44012	26
1.44003	26
1.43995	28
1.43986	30
1.43978	30
1.43969	32
1.43961	34
1.43952	26
1.43944	34
1.43935	24
1.43927	38
1.43918	28
1.4391	26
1.43901	34
1.43893	26
1.43885	32
1.43876	32
1.43868	28
1.43859	30
1.43851	26
1.43842	26
1.43834	28
1.43825	20
1.43817	34
1.43808	36
1.438	30
1.43791	34
1.43783	32
1.43775	32
1.43766	28
1.43758	24
1.43749	26
1.43741	28
1.43732	26
1.43724	36
1.43715	24
1.43707	24
1.43698	24
1.4369	26
1.43682	20
1.43673	28
1.43665	32
1.43656	30
1.43648	32
1.43639	28
1.43631	26
1.43622	30
1.43614	28
1.43606	30
1.43597	26
1.43589	30
1.4358	32
1.43572	34
1.43563	28
1.43555	28
1.43547	32
1.43538	30
1.4353	30
1.43521	28
1.43513	24
1.43505	26
1.43496	20
1.43488	28
1.43479	26
1.43471	32
1.43462	30
1.43454	36
1.43446	30
1.43437	32
1.43429	34
1.4342	38
1.43412	26
1.43404	26
1.43395	30
1.43387	36
1.43378	16
1.4337	28
1.43362	30
1.43353	30
1.43345	30
1.43336	26
1.43328	24
1.4332	34
1.43311	32
1.43303	26
1.43294	28
1.43286	36
1.43278	36
1.43269	30
1.43261	28
1.43252	34
1.43244	28
1.43236	20
1.43227	34
1.43219	30
1.4321	32
1.43202	28
1.43194	30
1.43185	26
1.43177	32
1.43169	32
1.4316	28
1.43152	22
1.43143	28
1.43135	30
1.43127	28
1.43118	28
1.4311	28
1.43102	20
1.43093	38
1.43085	34
1.43076	24
1.43068	26
1.4306	26
1.43051	26
1.43043	30
1.43035	26
1.43026	32
1.43018	32
1.4301	32
1.43001	30
1.42993	28
1.42985	28
1.42976	32
1.42968	32
1.42959	28
1.42951	34
1.42943	22
1.42934	28
1.42926	22
1.42918	32
1.42909	26
1.42901	24
1.42893	28
1.42884	28
1.42876	32
1.42868	36
1.42859	30
1.42851	22
1.42843	22
1.42834	24
1.42826	34
1.42818	32
1.42809	30
1.42801	34
1.42793	32
1.42784	26
1.42776	26
1.42768	30
1.42759	32
1.42751	28
1.42743	34
1.42734	30
1.42726	26
1.42718	24
1.4271	26
1.42701	38
1.42693	26
1.42685	24
1.42676	34
1.42668	28
1.4266	28
1.42651	30
1.42643	36
1.42635	24
1.42626	28
1.42618	24
1.4261	24
1.42601	28
1.42593	30
1.42585	30
1.42577	34
1.42568	30
1.4256	20
1.42552	30
1.42543	28
1.42535	36
1.42527	24
1.42519	30
1.4251	30
1.42502	24
1.42494	28
1.42485	30
1.42477	38
1.42469	36
1.4246	26
1.42452	30
1.42444	36
1.42436	33
1.42427	30
1.42419	34
1.42411	36
1.42403	28
1.42394	26
1.42386	24
1.42378	34
1.42369	20
1.42361	24
1.42353	30
1.42345	28
1.42336	24
1.42328	30
1.4232	32
1.42312	34
1.42303	28
1.42295	26
1.42287	24
1.42278	26
1.4227	30
1.42262	34
1.42254	24
1.42245	30
1.42237	30
1.42229	26
1.42221	30
1.42212	22
1.42204	34
1.42196	26
1.42188	28
1.42179	26
1.42171	26
1.42163	28
1.42155	30
1.42146	28
1.42138	26
1.4213	34
1.42122	42
1.42113	24
1.42105	26
1.42097	28
1.42089	30
1.42081	32
1.42072	28
1.42064	28
1.42056	26
1.42048	28
1.42039	28
1.42031	34
1.42023	32
1.42015	32
1.42006	28
1.41998	32
1.4199	28
1.41982	24
1.41974	28
1.41965	36
1.41957	34
1.41949	24
1.41941	26
1.41932	20
1.41924	28
1.41916	32
1.41908	24
1.419	24
1.41891	24
1.41883	26
1.41875	24
1.41867	28
1.41859	30
1.4185	28
1.41842	36
1.41834	34
1.41826	30
1.41818	34
1.41809	26
1.41801	32
1.41793	20
1.41785	32
1.41777	26
1.41768	26
1.4176	30
1.41752	24
1.41744	32
1.41736	30
1.41727	22
1.41719	30
1.41711	34
1.41703	28
1.41695	24
1.41686	36
1.41678	34
1.4167	28
1.41662	22
1.41654	26
1.41646	32
1.41637	28
1.41629	24
1.41621	28
1.41613	24
1.41605	26
1.41596	34
1.41588	28
1.4158	22
1.41572	26
1.41564	28
1.41556	26
1.41547	26
1.41539	28
1.41531	28
1.41523	32
1.41515	26
1.41507	30
1.41498	28
1.4149	34
1.41482	26
1.41474	36
1.41466	28
1.41458	34
1.4145	30
1.41441	26
1.41433	30
1.41425	28
1.41417	34
1.41409	30
1.41401	38
1.41392	30
1.41384	26
1.41376	32
1.41368	26
1.4136	28
1.41352	30
1.41344	30
1.41335	34
1.41327	36
1.41319	32
1.41311	26
1.41303	30
1.41295	34
1.41287	30
1.41279	30
1.4127	24
1.41262	30
1.41254	22
1.41246	24
1.41238	28
1.4123	24
1.41222	24
1.41213	28
1.41205	44
1.41197	32
1.41189	26
1.41181	22
1.41173	26
1.41165	28
1.41157	32
1.41149	20
1.4114	28
1.41132	30
1.41124	26
1.41116	30
1.41108	32
1.411	32
1.41092	32
1.41084	28
1.41076	34
1.41067	36
1.41059	24
1.41051	32
1.41043	28
1.41035	32
1.41027	22
1.41019	28
1.41011	34
1.41003	28
1.40995	30
1.40986	34
1.40978	26
1.4097	30
1.40962	34
1.40954	34
1.40946	24
1.40938	30
1.4093	26
1.40922	30
1.40914	34
1.40906	30
1.40897	24
1.40889	34
1.40881	24
1.40873	32
1.40865	38
1.40857	34
1.40849	30
1.40841	30
1.40833	34
1.40825	28
1.40817	38
1.40809	40
1.40801	36
1.40792	34
1.40784	32.0073
1.40776	33.923
1.40768	30.1905
1.4076	35.921
1.40752	30.0057
1.40744	28.2241
1.40736	32.1287
1.40728	37.7166
1.4072	32.4843
1.40712	32
1.40704	33.7861
1.40696	28.2381
1.40688	25.2335
1.4068	33.7327
1.40672	33.718
1.40663	38
1.40655	35.303
1.40647	35.3298
1.40639	31.0858
1.40631	30.7816
1.40623	35.5941
1.40615	32.0154
1.40607	33.0094
1.40599	35.4408
1.40591	36.0525
1.40583	37.0894
1.40575	40.2863
1.40567	40.9881
1.40559	45.3053
1.40551	35.6581
1.40543	45.1275
1.40535	40.9281
1.40527	36.8236
1.40519	41.0245
1.40511	50.2518
1.40503	41.5149
1.40495	47.9674
1.40487	52.9968
1.40479	52.4752
1.4047	58.3522
1.40462	74.4201
1.40454	169.642
1.40446	1709.41
1.40438	6659.18
1.4043	10420.6
1.40422	8761.64
1.40414	4295.23
1.40406	380.925
1.40398	104.04
1.4039	82.4837
1.40382	70.207
1.40374	66.901
1.40366	55.0592
1.40358	52
1.4035	47.5779
1.40342	41.8797
1.40334	43.728
1.40326	44.8806
1.40318	45.6609
1.4031	44.2589
1.40302	41.9226
1.40294	46.5676
1.40286	41.7989
1.40278	41.7985
1.4027	42.7297
1.40262	43.3379
1.40254	37.4046
1.40246	40.8594
1.40238	40.5701
1.4023	40.1832
1.40222	36.5097
1.40214	39.1683
1.40206	38.0207
1.40198	41.4518
1.4019	37.6383
1.40182	36.4264
1.40174	38.4851
1.40166	41.374
1.40158	39.2181
1.4015	37.8259
1.40142	39.3823
1.40134	39.0212
1.40126	38
1.40118	39.9698
1.4011	40.3599
1.40102	39.7604
1.40094	42
1.40086	41.4653
1.40078	40.7634
1.4007	38.9317
1.40062	36.7819
1.40054	37.0594
1.40046	38.9897
1.40038	40.1485
1.4003	42.2346
1.40022	41.4802
1.40015	36.7732
1.40007	35.3316
1.39999	34.868
1.39991	33.9406
1.39983	34
1.39979	34
1.39971	32
1.39963	42
1.39955	42
1.39947	32
1.39939	42
1.3993	34
1.39922	40
1.39914	34
1.39906	42
1.39898	38
1.3989	36
1.39882	34
1.39874	34
1.39866	34
1.39858	46
1.3985	40
1.39842	34
1.39834	48
1.39826	38
1.39818	30
1.3981	40
1.39802	36
1.39795	34
1.39787	32
1.39779	34
1.39771	36
1.39763	38
1.39755	40
1.39747	34
1.39739	46
1.39731	30
1.39723	44
1.39715	44
1.39707	46
1.39699	48
1.39691	36
1.39683	42
1.39675	40
1.39667	42
1.39659	42
1.39651	38
1.39643	36
1.39635	40
1.39627	42
1.39619	46
1.39611	38
1.39603	38
1.39595	44
1.39587	42
1.39579	42
1.39571	42
1.39563	42
1.39555	42
1.39547	40
1.39539	40
1.39531	38
1.39523	44
1.39515	38
1.39507	30
1.395	38
1.39492	38
1.39484	48
1.39476	42
1.39468	28
1.3946	48
1.39452	36
1.39444	38
1.39436	36
1.39428	36
1.3942	40
1.39412	40
1.39404	46
1.39396	38
1.39388	36
1.3938	32
1.39372	36
1.39364	42
1.39357	34
1.39349	36
1.39341	38
1.39333	46
1.39325	38
1.39317	40
1.39309	36
1.39301	38
1.39293	32
1.39285	36
1.39277	38
1.39269	36
1.39261	30
1.39253	44
1.39245	38
1.39238	36
1.3923	48
1.39222	32
1.39214	42
1.39206	42
1.39198	38
1.3919	40
1.39182	40
1.39174	46
1.39166	40
1.39158	48
1.39151	46
1.39143	38
1.39135	46
1.39127	32
1.39119	46
1.39111	42
1.39103	38
1.39095	48
1.39087	38
1.39079	36
1.39071	40
1.39064	40
1.39056	38
1.39048	34
1.3904	36
1.39032	36
1.39024	28
1.39016	28
1.39008	40
1.39	50
1.38992	40
1.38985	34
1.38977	40
1.38969	40
1.38961	44
1.38953	36
1.38945	38
1.38937	46
1.38929	44
1.38922	34
1.38914	32
1.38906	42
1.38898	38
1.3889	30
1.38882	40
1.38874	40
1.38866	38
1.38858	36
1.38851	30
1.38843	46
1.38835	42
1.38827	30
1.38819	46
1.38811	44
1.38803	40
1.38796	42
1.38788	44
1.3878	34
1.38772	34
1.38764	32
1.38756	42
1.38748	46
1.38741	48
1.38733	40
1.38725	46
1.38717	40
1.38709	46
1.38701	34
1.38693	52
1.38686	46
1.38678	42
1.3867	32
1.38662	38
1.38654	48
1.38646	42
1.38638	30
1.38631	44
1.38623	48
1.38615	38
1.38607	36
1.38599	34
1.38591	50
1.38584	44
1.38576	46
1.38568	44
1.3856	34
1.38552	42
1.38544	30
1.38537	46
1.38529	34
1.38521	48
1.38513	44
1.38505	34
1.38497	44
1.3849	48
1.38482	34
1.38474	38
1.38466	38
1.38458	34
1.3845	36
1.38443	44
1.38435	38
1.38427	42
1.38419	44
1.38411	38
1.38403	38
1.38396	38
1.38388	42
1.3838	40
1.38372	34
1.38364	46
1.38357	38
1.38349	36
1.38341	38
1.38333	40
1.38325	44
1.38318	44
1.3831	36
1.38302	34
1.38294	42
1.38286	40
1.38279	40
1.38271	42
1.38263	38
1.38255	36
1.38247	38
1.3824	38
1.38232	42
1.38224	40
1.38216	44
1.38208	38
1.38201	38
1.38193	32
1.38185	38
1.38177	46
1.38169	34
1.38162	44
1.38154	44
1.38146	42
1.38138	38
1.38131	38
1.38123	38
1.38115	42
1.38107	44
1.38099	34
1.38092	40
1.38084	42
1.38076	34
1.38068	34
1.3806	36
1.38053	44
1.38045	36
1.38037	42
1.38029	42
1.38022	46
1.38014	44
1.38006	36
1.37998	38
1.37991	36
1.37983	42
1.37975	42
1.37967	34
1.3796	36
1.37952	40
1.37944	36
1.37936	40
1.37928	44
1.37921	32
1.37913	32
1.37905	44
1.37897	34
1.3789	32
1.37882	46
1.37874	44
1.37866	38
1.37859	42
1.37851	52
1.37843	44
1.37835	40
1.37828	40
1.3782	34
1.37812	38
1.37804	38
1.37797	30
1.37789	40
1.37781	34
1.37774	40
1.37766	32
1.37758	46
1.3775	34
1.37743	44
1.37735	36
1.37727	46
1.37719	34
1.37712	46
1.37704	46
1.37696	36
1.37688	42
1.37681	30
1.37673	34
1.37665	50
1.37658	36
1.3765	42
1.37642	38
1.37634	38
1.37627	40
1.37619	42
1.37611	38
1.37604	46
1.37596	32
1.37588	46
1.3758	36
1.37573	34
1.37565	32
1.37557	32
1.3755	40
1.37542	40
1.37534	36
1.37526	38
1.37519	38
1.37511	44
1.37503	46
1.37496	38
1.37488	44
1.3748	42
1.37472	40
1.37465	36
1.37457	42
1.37449	34
1.37442	40
1.37434	38
1.37426	40
1.37419	44
1.37411	42
1.37403	36
1.37396	46
1.37388	30
1.3738	34
1.37372	38
1.37365	46
1.37357	38
1.37349	48
1.37342	34
1.37334	40
1.37326	32
1.37319	36
1.37311	34
1.37303	40
1.37296	46
1.37288	36
1.3728	38
1.37273	48
1.37265	42
1.37257	36
1.3725	42
1.37242	38
1.37234	42
1.37227	40
1.37219	30
1.37211	52
1.37204	38
1.37196	42
1.37188	38
1.37181	46
1.37173	46
1.37165	38
1.37158	30
1.3715	48
1.37142	32
1.37135	42
1.37127	38
1.37119	38
1.37112	42
1.37104	40
1.37096	44
1.37089	38
1.37081	36
1.37073	36
1.37066	38
1.37058	42
1.3705	42
1.37043	36
1.37035	44
1.37027	38
1.3702	40
1.37012	34
1.37005	44
1.36997	44
1.36989	30
1.36982	36
1.36974	48
1.36966	44
1.36959	38
1.36951	40
1.36943	44
1.36936	40
1.36928	32
1.36921	48
1.36913	42
1.36905	42
1.36898	30
1.3689	40
1.36882	34
1.36875	38
1.36867	40
1.3686	38
1.36852	44
1.36844	42
1.36837	34
1.36829	42
1.36821	38
1.36814	38
1.36806	40
1.36799	50
1.36791	44
1.36783	28
1.36776	40
1.36768	36
1.3676	48
1.36753	38
1.36745	40
1.36738	40
1.3673	34
1.36722	32
1.36715	36
1.36707	36
1.367	34
1.36692	40
1.36684	28
1.36677	40
1.36669	44
1.36662	40
1.36654	38
1.36646	28
1.36639	38
1.36631	36
1.36624	36
1.36616	40
1.36608	40
1.36601	38
1.36593	32
1.36586	32
1.36578	48
1.3657	40
1.36563	44
1.36555	44
1.36548	40
1.3654	38
1.36533	38
1.36525	32
1.36517	40
1.3651	34
1.36502	42
1.36495	38
1.36487	36
1.36479	46
1.36472	38
1.36464	40
1.36457	42
1.36449	38
1.36442	30
1.36434	32
1.36426	38
1.36419	40
1.36411	46
1.36404	40
1.36396	36
1.36389	36
1.36381	34
1.36373	36
1.36366	40
1.36358	36
1.36351	32
1.36343	40
1.36336	44
1.36328	34
1.36321	36
1.36313	40
1.36305	38
1.36298	44
1.3629	46
1.36283	42
1.36275	34
1.36268	32
1.3626	32
1.36253	38
1.36245	34
1.36238	36
1.3623	40
1.36222	36
1.36215	40
1.36207	38
1.362	40
1.36192	30
1.36185	36
1.36177	38
1.3617	44
1.36162	32
1.36155	32
1.36147	40
1.36139	32
1.36132	40
1.36124	34
1.36117	40
1.36109	32
1.36102	44
1.36094	34
1.36087	38
1.36079	40
1.36072	40
1.36064	34
1.36057	34
1.36049	40
1.36042	32
1.36034	32
1.36027	38
1.36019	36
1.36012	36
1.36004	44
1.35996	38
1.35989	36
1.35981	38
1.35974	34
1.35966	36
1.35959	42
1.35951	34
1.35944	42
1.35936	32
1.35929	38
1.35921	34
1.35914	38
1.35906	42
1.35899	40
1.35891	36
1.35884	46
1.35876	42
1.35869	34
1.35861	40
1.35854	30
1.35846	40
1.35839	42
1.35831	36
1.35824	40
1.35816	36
1.35809	32
1.35801	40
1.35794	38
1.35786	36
1.35779	38
1.35771	36
1.35764	38
1.35756	34
1.35749	38
1.35741	46
1.35734	38
1.35726	30
1.35719	36
1.35711	44
1.35704	38
1.35697	46
1.35689	38
1.35682	34
1.35674	40
1.35667	32
1.35659	32
1.35652	40
1.35644	36
1.35637	36
1.35629	38
1.35622	42
1.35614	30
1.35607	40
1.35599	36
1.35592	44
1.35584	40
1.35577	44
1.3557	36
1.35562	42
1.35555	34
1.35547	30
1.3554	40
1.35532	40
1.35525	30
1.35517	36
1.3551	36
1.35502	38
1.35495	34
1.35487	28
1.3548	38
1.35473	42
1.35465	34
1.35458	32
1.3545	30
1.35443	30
1.35435	36
1.35428	36
1.3542	36
1.35413	34
1.35406	34
1.35398	40
1.35391	44
1.35383	44
1.35376	38
1.35368	40
1.35361	34
1.35353	44
1.35346	36
1.35339	40
1.35331	32
1.35324	34
1.35316	34
1.35309	36
1.35301	40
1.35294	26
1.35287	32
1.35279	40
1.35272	36
1.35264	34
1.35257	42
1.35249	36
1.35242	38
1.35235	34
1.35227	38
1.3522	40
1.35212	36
1.35205	40
1.35197	34
1.3519	37
1.35183	40
1.35175	34
1.35168	28
1.3516	42
1.35153	26
1.35146	26
1.35138	32
1.35131	36
1.35123	40
1.35116	44
1.35108	36
1.35101	38
1.35094	42
1.35086	40
1.35079	40
1.35071	36
1.35064	34
1.35057	42
1.35049	40
1.35042	30
1.35034	36
1.35027	36
1.3502	42
1.35012	44
1.35005	40
1.34997	36
1.3499	38
1.34983	34
1.34975	32
1.34968	36
1.34961	40
1.34953	34
1.34946	30
1.34938	32
1.34931	36
1.34924	40
1.34916	36
1.34909	40
1.34901	38
1.34894	36
1.34887	34
1.34879	38
1.34872	44
1.34865	38
1.34857	42
1.3485	40
1.34842	34
1.34835	32
1.34828	40
1.3482	32
1.34813	36
1.34806	26
1.34798	38
1.34791	40
1.34783	36
1.34776	36
1.34769	34
1.34761	38
1.34754	42
1.34747	24
1.34739	24
1.34732	34
1.34725	38
1.34717	40
1.3471	32
1.34702	42
1.34695	26
1.34688	40
1.3468	32
1.34673	32
1.34666	34
1.34658	34
1.34651	42
1.34644	26
1.34636	44
1.34629	28
1.34622	32
1.34614	38
1.34607	36
1.346	42
1.34592	30
1.34585	46
1.34578	46
1.3457	32
1.34563	36
1.34555	44
1.34548	36
1.34541	34
1.34533	36
1.34526	40
1.34519	38
1.34511	38
1.34504	44
1.34497	46
1.34489	36
1.34482	26
1.34475	38
1.34467	38
1.3446	40
1.34453	30
1.34445	36
1.34438	36
1.34431	26
1.34424	36
1.34416	42
1.34409	32
1.34402	36
1.34394	40
1.34387	40
1.3438	40
1.34372	38
1.34365	32
1.34358	44
1.3435	34
1.34343	36
1.34336	34
1.34328	36
1.34321	32
1.34314	34
1.34306	36
1.34299	36
1.34292	30
1.34285	24
1.34277	32
1.3427	36
1.34263	36
1.34255	30
1.34248	32
1.34241	32
1.34233	34
1.34226	28
1.34219	42
1.34212	34
1.34204	38
1.34197	32
1.3419	42
1.34182	38
1.34175	38
1.34168	30
1.3416	26
1.34153	36
1.34146	36
1.34139	30
1.34131	30
1.34124	38
1.34117	32
1.34109	32
1.34102	40
1.34095	38
1.34088	40
1.3408	34
1.34073	36
1.34066	38
1.34058	38
1.34051	30
1.34044	36
1.34037	34
1.34029	28
1.34022	32
1.34015	32
1.34008	30
1.34	36
1.33993	40
1.33986	36
1.33978	36
1.33971	42
1.33964	34
1.33957	42
1.33949	36
1.33942	30
1.33935	36
1.33928	40
1.3392	32
1.33913	36
1.33906	34
1.33899	40
1.33891	38
1.33884	28
1.33877	34
1.3387	34
1.33862	34
1.33855	30
1.33848	32
1.33841	36
1.33833	36
1.33826	34
1.33819	42
1.33812	32
1.33804	34
1.33797	34
1.3379	32
1.33783	34
1.33775	34
1.33768	30
1.33761	36
1.33754	32
1.33746	34
1.33739	30
1.33732	32
1.33725	35.9954
1.33717	26.1077
1.3371	30.1832
1.33703	35.9551
1.33696	37.7065
1.33688	34.0847
1.33681	37.7731
1.33674	34.1171
1.33667	32.259
1.3366	32.704
1.33652	34.1558
1.33645	40.0664
1.33638	33.2718
1.33631	26.5132
1.33623	31.2348
1.33616	32.0887
1.33609	24.2427
1.33602	30.9282
1.33594	28.7645
1.33587	35.6676
1.3358	34.3518
1.33573	29.1146
1.33566	37.4241
1.33558	36.1748
1.33551	40.8448
1.33544	36.3676
1.33537	31.8768
1.3353	32.1398
1.33522	31.133
1.33515	25.7184
1.33508	34.2892
1.33501	42.4484
1.33493	37.8665
1.33486	34.5783
1.33479	34.0097
1.33472	34.0846
1.33465	28.3401
1.33457	30.1757
1.3345	30.7548
1.33443	35.9981
1.33436	36.4329
1.33429	35.9893
1.33421	34.3795
1.33414	37.1124
1.33407	38.8097
1.334	39.7339
1.33393	30.8703
1.33385	33.1245
1.33378	30.9417
1.33371	33.9407
1.33364	39.2035
1.33357	34.8501
1.33349	35.9125
1.33342	33.3234
1.33335	34.8432
1.33328	33.9056
1.33321	32.1156
1.33314	35.1322
1.33306	31.5857
1.33299	34.4588
1.33292	33.6779
1.33285	30.2643
1.33278	34.5438
1.3327	40.1237
1.33263	30.8643
1.33256	37.6978
1.33249	32.6519
1.33242	32.6893
1.33235	34.5966
1.33227	34.9093
1.3322	32.8392
1.33213	32.277
1.33206	32.6587
1.33199	31.1456
1.33191	33.345
1.33184	34.2726
1.33177	33.3126
1.3317	36.9495
1.33163	31.8546
1.33156	31.3689
1.33148	34.6553
1.33141	28.9941
1.33134	30.6759
1.33127	35.948
1.3312	39.2816
1.33113	35.0935
1.33105	28.6173
1.33098	31.962
1.33091	35.7552
1.33084	31.2198
1.33077	29.439
1.3307	34.5777
1.33062	29.3889
1.33055	29.0826
1.33048	33.117
1.33041	34.5046
1.33034	34.9521
1.33027	37.3124
1.3302	37.6505
1.33012	33.1722
1.33005	31.3529
1.32998	32.0874
1.32991	33.2048
1.32988	34
1.32981	36
1.32974	32
1.32967	34
1.32959	40
1.32952	34
1.32945	30
1.32938	42
1.32931	36
1.32923	38
1.32916	28
1.32909	24
1.32902	30
1.32895	30
1.32888	36
1.3288	30
1.32873	34
1.32866	40
1.32859	30
1.32852	28
1.32844	34
1.32837	26
1.3283	32
1.32823	32
1.32816	36
1.32809	34
1.32801	34
1.32794	34
1.32787	40
1.3278	32
1.32773	38
1.32766	30
1.32758	36
1.32751	42
1.32744	32
1.32737	32
1.3273	36
1.32723	28
1.32715	28
1.32708	32
1.32701	34
1.32694	32
1.32687	38
1.3268	30
1.32672	30
1.32665	32
1.32658	38
1.32651	36
1.32644	32
1.32637	36
1.3263	26
1.32622	36
1.32615	32
1.32608	30
1.32601	28
1.32594	32
1.32587	32
1.3258	40
1.32572	30
1.32565	38
1.32558	40
1.32551	34
1.32544	34
1.32537	42
1.3253	32
1.32522	26
1.32515	42
1.32508	32
1.32501	22
1.32494	28
1.32487	40
1.3248	36
1.32472	34
1.32465	34
1.32458	36
1.32451	40
1.32444	36
1.32437	32
1.3243	38
1.32423	38
1.32415	28
1.32408	22
1.32401	34
1.32394	42
1.32387	34
1.3238	34
1.32373	38
1.32366	40
1.32358	36
1.32351	36
1.32344	32
1.32337	34
1.3233	32
1.32323	36
1.32316	36
1.32309	30
1.32302	34
1.32294	36
1.32287	30
1.3228	24
1.32273	26
1.32266	34
1.32259	36
1.32252	32
1.32245	40
1.32238	36
1.32231	40
1.32223	30
1.32216	32
1.32209	42
1.32202	36
1.32195	28
1.32188	32
1.32181	38
1.32174	36
1.32167	26
1.3216	28
1.32152	36
1.32145	30
1.32138	26
1.32131	32
1.32124	38
1.32117	34
1.3211	30
1.32103	44
1.32096	34
1.32089	42
1.32082	32
1.32074	38
1.32067	42
1.3206	32
1.32053	40
1.32046	40
1.32039	28
1.32032	34
1.32025	46
1.32018	30
1.32011	32
1.32004	22
1.31997	36
1.3199	34
1.31982	30
1.31975	42
1.31968	32
1.31961	36
1.31954	36
1.31947	30
1.3194	30
1.31933	30
1.31926	28
1.31919	38
1.31912	32
1.31905	28
1.31898	34
1.31891	36
1.31884	40
1.31876	28
1.31869	36
1.31862	30
1.31855	36
1.31848	24
1.31841	32
1.31834	34
1.31827	32
1.3182	32
1.31813	32
1.31806	36
1.31799	30
1.31792	32
1.31785	34
1.31778	30
1.31771	26
1.31764	40
1.31757	34
1.3175	42
1.31742	36
1.31735	34
1.31728	30
1.31721	44
1.31714	32
1.31707	38
1.317	34
1.31693	30
1.31686	36
1.31679	30
1.31672	34
1.31665	36
1.31658	30
1.31651	30
1.31644	30
1.31637	36
1.3163	32
1.31623	30
1.31616	32
1.31609	36
1.31602	38
1.31595	36
1.31588	28
1.31581	36
1.31574	40
1.31567	30
1.3156	40
1.31553	34
1.31546	36
1.31539	32
1.31532	38
1.31525	30
1.31518	26
1.3151	32
1.31503	32
1.31496	40
1.31489	38
1.31482	32
1.31475	26
1.31468	38
1.31461	46
1.31454	32
1.31447	36
1.3144	28
1.31433	24
1.31426	32
1.31419	32
1.31412	28
1.31405	28
1.31398	36
1.31391	34
1.31384	38
1.31377	30
1.3137	34
1.31363	30
1.31356	36
1.31349	44
1.31342	26
1.31335	28
1.31328	38
1.31321	26
1.31314	40
1.31307	30
1.313	36
1.31293	32
1.31286	32
1.31279	36
1.31272	42
1.31265	26
1.31258	38
1.31251	34
1.31244	26
1.31238	36
1.31231	24
1.31224	38
1.31217	32
1.3121	30
1.31203	26
1.31196	42
1.31189	36
1.31182	44
1.31175	28
1.31168	32
1.31161	42
1.31154	26
1.31147	34
1.3114	38
1.31133	36
1.31126	38
1.31119	32
1.31112	34
1.31105	32
1.31098	32
1.31091	32
1.31084	32
1.31077	30
1.3107	38
1.31063	38
1.31056	36
1.31049	36
1.31042	28
1.31035	36
1.31028	38
1.31021	36
1.31014	30
1.31008	30
1.31001	32
1.30994	28
1.30987	36
1.3098	34
1.30973	36
1.30966	28
1.30959	32
1.30952	32
1.30945	36
1.30938	28
1.30931	40
1.30924	30
1.30917	36
1.3091	40
1.30903	38
1.30896	34
1.30889	32
1.30882	36
1.30876	36
1.30869	36
1.30862	34
1.30855	36
1.30848	28
1.30841	30
1.30834	36
1.30827	30
1.3082	34
1.30813	40
1.30806	30
1.30799	36
1.30792	32
1.30785	38
1.30778	34
1.30771	28
1.30765	34
1.30758	38
1.30751	34
1.30744	34
1.30737	32
1.3073	32
1.30723	36
1.30716	30
1.30709	36
1.30702	40
1.30695	28
1.30688	34
1.30682	30
1.30675	38
1.30668	24
1.30661	32
1.30654	38
1.30647	32
1.3064	38
1.30633	36
1.30626	30
1.30619	34
1.30612	26
1.30605	32
1.30599	32
1.30592	36
1.30585	28
1.30578	34
1.30571	30
1.30564	36
1.30557	32
1.3055	28
1.30543	34
1.30536	40
1.3053	32
1.30523	30
1.30516	36
1.30509	32
1.30502	32
1.30495	36
1.30488	44
1.30481	30
1.30474	32
1.30467	32
1.30461	38
1.30454	32
1.30447	44
1.3044	32
1.30433	48
1.30426	28
1.30419	34
1.30412	44
1.30405	30
1.30399	32
1.30392	30
1.30385	34
1.30378	38
1.30371	34
1.30364	34
1.30357	32
1.3035	38
1.30344	36
1.30337	32
1.3033	42
1.30323	38
1.30316	34
1.30309	28
1.30302	34
1.30295	36
1.30289	30
1.30282	36
1.30275	30
1.30268	30
1.30261	32
1.30254	28
1.30247	32
1.3024	42
1.30234	30
1.30227	34
1.3022	32
1.30213	32
1.30206	36
1.30199	40
1.30192	44
1.30186	30
1.30179	38
1.30172	40
1.30165	38
1.30158	28
1.30151	26
1.30144	36
1.30138	46
1.30131	38
1.30124	36
1.30117	38
1.3011	28
1.30103	34
1.30097	32
1.3009	32
1.30083	34
1.30076	32
1.30069	24
1.30062	40
1.30055	38
1.30049	32
1.30042	36
1.30035	36
1.30028	30
1.30021	34
1.30014	36
1.30008	30
1.30001	36
